iteration,torque 0 [Nm],actual position 0 [rad],desired position 0 [rad]
0,0.00174646,0.058578,0.0586201
1,-0.00168577,0.0586201,0.0586201
2,0,0.0586201,0.0586201
3,0,0.0586201,0.0586201
4,0,0.0586201,0.0586201
5,0,0.0586201,0.0586201
6,0,0.0586201,0.0586201
7,0,0.0586201,0.0586201
8,0,0.0586201,0.0586201
9,0,0.0586201,0.0586201
10,0,0.0586201,0.0586201
11,0,0.0586201,0.0586201
12,0,0.0586201,0.0586201
13,0,0.0586201,0.0586201
14,0,0.0586201,0.0586201
15,0,0.0586201,0.0586201
16,0,0.0586201,0.0586201
17,0,0.0586201,0.0586201
18,0,0.0586201,0.0586201
19,0,0.0586201,0.0586201
20,0,0.0586201,0.0586201
21,0,0.0586201,0.0586201
22,-0.00174646,0.0586623,0.0586201
23,0.00168577,0.0586201,0.0586201
24,-0.00174646,0.0586623,0.0586201
25,0.00168577,0.0586201,0.0586201
26,0,0.0586201,0.0586201
27,0,0.0586201,0.0586201
28,0,0.0586201,0.0586201
29,0,0.0586201,0.0586201
30,0,0.0586201,0.0586201
31,0.00174646,0.058578,0.0586201
32,-0.00168577,0.0586201,0.0586201
33,0,0.0586201,0.0586201
34,0,0.0586201,0.0586201
35,0,0.0586201,0.0586201
36,0,0.0586201,0.0586201
37,0,0.0586201,0.0586201
38,-0.00174646,0.0586623,0.0586201
39,-6.06877e-05,0.0586623,0.0586201
40,-6.06877e-05,0.0586623,0.0586201
41,-6.06877e-05,0.0586623,0.0586201
42,-6.06877e-05,0.0586623,0.0586201
43,-6.06877e-05,0.0586623,0.0586201
44,-6.06877e-05,0.0586623,0.0586201
45,0.00168577,0.0586201,0.0586201
46,0,0.0586201,0.0586201
47,0,0.0586201,0.0586201
48,0,0.0586201,0.0586201
49,0,0.0586201,0.0586201
50,0.00174646,0.058578,0.0586201
51,6.06877e-05,0.058578,0.0586201
52,6.06877e-05,0.058578,0.0586201
53,-0.00168577,0.0586201,0.0586201
54,0,0.0586201,0.0586201
55,-0.00174646,0.0586623,0.0586201
56,0.00168577,0.0586201,0.0586201
57,-0.00174646,0.0586623,0.0586201
58,-6.06877e-05,0.0586623,0.0586201
59,-6.06877e-05,0.0586623,0.0586201
60,0.00168577,0.0586201,0.0586201
61,-0.00174646,0.0586623,0.0586201
62,-6.06877e-05,0.0586623,0.0586201
63,0.00168577,0.0586201,0.0586201
64,0.00174646,0.058578,0.0586201
65,-0.00168577,0.0586201,0.0586201
66,0.00174646,0.058578,0.0586201
67,6.06877e-05,0.058578,0.0586201
68,6.06877e-05,0.058578,0.0586201
69,6.06877e-05,0.058578,0.0586201
70,-0.00168577,0.0586201,0.0586201
71,0,0.0586201,0.0586201
72,0,0.0586201,0.0586201
73,-0.00174646,0.0586623,0.0586201
74,-6.06877e-05,0.0586623,0.0586201
75,-6.06877e-05,0.0586623,0.0586201
76,-6.06877e-05,0.0586623,0.0586201
77,-0.00180699,0.0587044,0.0586201
78,-0.00012137,0.0587044,0.0586201
79,-0.00012137,0.0587044,0.0586201
80,0.00162493,0.0586623,0.0586201
81,-6.06877e-05,0.0586623,0.0586201
82,-6.06877e-05,0.0586623,0.0586201
83,0.00168577,0.0586201,0.0586201
84,0,0.0586201,0.0586201
85,0.00174646,0.058578,0.0586201
86,6.06877e-05,0.058578,0.0586201
87,-0.00168577,0.0586201,0.0586201
88,0,0.0586201,0.0586201
89,0.00174646,0.058578,0.0586201
90,-0.00168577,0.0586201,0.0586201
91,0,0.0586201,0.0586201
92,0,0.0586201,0.0586201
93,-0.00174646,0.0586623,0.0586201
94,-6.06877e-05,0.0586623,0.0586201
95,-6.06877e-05,0.0586623,0.0586201
96,-6.06877e-05,0.0586623,0.0586201
97,-6.06877e-05,0.0586623,0.0586201
98,-6.06877e-05,0.0586623,0.0586201
99,-6.06877e-05,0.0586623,0.0586201
100,0.00168577,0.0586201,0.0586201
101,0,0.0586201,0.0586201
102,0.00174646,0.058578,0.0586201
103,6.06877e-05,0.058578,0.0586201
104,-0.00168577,0.0586201,0.0586201
105,0,0.0586201,0.0586201
106,0,0.0586201,0.0586201
107,0,0.0586201,0.0586201
108,0,0.0586201,0.0586201
109,0,0.0586201,0.0586201
110,0,0.0586201,0.0586201
111,0,0.0586201,0.0586201
112,0,0.0586201,0.0586201
113,0,0.0586201,0.0586201
114,0,0.0586201,0.0586201
115,0,0.0586201,0.0586201
116,0,0.0586201,0.0586201
117,0,0.0586201,0.0586201
118,0,0.0586201,0.0586201
119,0,0.0586201,0.0586201
120,-0.00174646,0.0586623,0.0586201
121,0.00168577,0.0586201,0.0586201
122,0,0.0586201,0.0586201
123,0,0.0586201,0.0586201
124,0,0.0586201,0.0586201
125,-0.00174646,0.0586623,0.0586201
126,0.00168577,0.0586201,0.0586201
127,-0.00174646,0.0586623,0.0586201
128,0.00168577,0.0586201,0.0586201
129,-0.00174646,0.0586623,0.0586201
130,0.00168577,0.0586201,0.0586201
131,0,0.0586201,0.0586201
132,0,0.0586201,0.0586201
133,0,0.0586201,0.0586201
134,0,0.0586201,0.0586201
135,0,0.0586201,0.0586201
136,-0.00174646,0.0586623,0.0586201
137,0.00168577,0.0586201,0.0586201
138,0,0.0586201,0.0586201
139,0,0.0586201,0.0586201
140,0,0.0586201,0.0586201
141,0,0.0586201,0.0586201
142,0,0.0586201,0.0586201
143,-0.00174646,0.0586623,0.0586201
144,0.00168577,0.0586201,0.0586201
145,0,0.0586201,0.0586201
146,0,0.0586201,0.0586201
147,0,0.0586201,0.0586201
148,0,0.0586201,0.0586201
149,0,0.0586201,0.0586201
150,0,0.0586201,0.0586201
151,0,0.0586201,0.0586201
152,0,0.0586201,0.0586201
153,0,0.0586201,0.0586201
154,0,0.0586201,0.0586201
155,0,0.0586201,0.0586201
156,0,0.0586201,0.0586201
157,0,0.0586201,0.0586201
158,0,0.0586201,0.0586201
159,-0.00174646,0.0586623,0.0586201
160,0.00168577,0.0586201,0.0586201
161,-0.00174646,0.0586623,0.0586201
162,-6.06877e-05,0.0586623,0.0586201
163,-6.06877e-05,0.0586623,0.0586201
164,-6.06877e-05,0.0586623,0.0586201
165,-6.06877e-05,0.0586623,0.0586201
166,-6.06877e-05,0.0586623,0.0586201
167,0.00168577,0.0586201,0.0586201
168,0,0.0586201,0.0586201
169,0,0.0586201,0.0586201
170,0.00174646,0.058578,0.0586201
171,0.00180699,0.0585358,0.0586201
172,-0.00162493,0.058578,0.0586201
173,6.06877e-05,0.058578,0.0586201
174,-0.00168577,0.0586201,0.0586201
175,0,0.0586201,0.0586201
176,0,0.0586201,0.0586201
177,0,0.0586201,0.0586201
178,-0.00174646,0.0586623,0.0586201
179,-6.06877e-05,0.0586623,0.0586201
180,-6.06877e-05,0.0586623,0.0586201
181,0.00168577,0.0586201,0.0586201
182,0,0.0586201,0.0586201
183,0,0.0586201,0.0586201
184,0,0.0586201,0.0586201
185,0,0.0586201,0.0586201
186,0.00174646,0.058578,0.0586201
187,6.06877e-05,0.058578,0.0586201
188,6.06877e-05,0.058578,0.0586201
189,6.06877e-05,0.058578,0.0586201
190,6.06877e-05,0.058578,0.0586201
191,-0.00168577,0.0586201,0.0586201
192,0,0.0586201,0.0586201
193,0,0.0586201,0.0586201
194,0,0.0586201,0.0586201
195,0,0.0586201,0.0586201
196,0,0.0586201,0.0586201
197,-0.00174646,0.0586623,0.0586201
198,0.00168577,0.0586201,0.0586201
199,0,0.0586201,0.0586201
200,-0.00174646,0.0586623,0.0586201
201,-6.06877e-05,0.0586623,0.0586201
202,0.00168577,0.0586201,0.0586201
203,0,0.0586201,0.0586201
204,0,0.0586201,0.0586201
205,0,0.0586201,0.0586201
206,0,0.0586201,0.0586201
207,0,0.0586201,0.0586201
208,0,0.0586201,0.0586201
209,0,0.0586201,0.0586201
210,0,0.0586201,0.0586201
211,0,0.0586201,0.0586201
212,0,0.0586201,0.0586201
213,-0.00174646,0.0586623,0.0586201
214,-6.06877e-05,0.0586623,0.0586201
215,0.00168577,0.0586201,0.0586201
216,-0.00174646,0.0586623,0.0586201
217,-6.06877e-05,0.0586623,0.0586201
218,-6.06877e-05,0.0586623,0.0586201
219,-6.06877e-05,0.0586623,0.0586201
220,0.00168577,0.0586201,0.0586201
221,-0.00174646,0.0586623,0.0586201
222,0.00168577,0.0586201,0.0586201
223,0,0.0586201,0.0586201
224,0,0.0586201,0.0586201
225,0,0.0586201,0.0586201
226,0,0.0586201,0.0586201
227,0,0.0586201,0.0586201
228,0,0.0586201,0.0586201
229,0,0.0586201,0.0586201
230,0,0.0586201,0.0586201
231,-0.00174646,0.0586623,0.0586201
232,-6.06877e-05,0.0586623,0.0586201
233,-6.06877e-05,0.0586623,0.0586201
234,-6.06877e-05,0.0586623,0.0586201
235,0.00168577,0.0586201,0.0586201
236,0,0.0586201,0.0586201
237,0,0.0586201,0.0586201
238,0,0.0586201,0.0586201
239,0.00174646,0.058578,0.0586201
240,6.06877e-05,0.058578,0.0586201
241,6.06877e-05,0.058578,0.0586201
242,6.06877e-05,0.058578,0.0586201
243,6.06877e-05,0.058578,0.0586201
244,6.06877e-05,0.058578,0.0586201
245,6.06877e-05,0.058578,0.0586201
246,-0.00168577,0.0586201,0.0586201
247,0,0.0586201,0.0586201
248,-0.00174646,0.0586623,0.0586201
249,-6.06877e-05,0.0586623,0.0586201
250,-6.06877e-05,0.0586623,0.0586201
251,-6.06877e-05,0.0586623,0.0586201
252,-6.06877e-05,0.0586623,0.0586201
253,-6.06877e-05,0.0586623,0.0586201
254,-6.06877e-05,0.0586623,0.0586201
255,-6.06877e-05,0.0586623,0.0586201
256,0.00168577,0.0586201,0.0586201
257,0,0.0586201,0.0586201
258,0,0.0586201,0.0586201
259,0,0.0586201,0.0586201
260,0.00174646,0.058578,0.0586201
261,6.06877e-05,0.058578,0.0586201
262,6.06877e-05,0.058578,0.0586201
263,-0.00168577,0.0586201,0.0586201
264,0,0.0586201,0.0586201
265,0,0.0586201,0.0586201
266,-0.00174646,0.0586623,0.0586201
267,-6.06877e-05,0.0586623,0.0586201
268,-6.06877e-05,0.0586623,0.0586201
269,-6.06877e-05,0.0586623,0.0586201
270,-6.06877e-05,0.0586623,0.0586201
271,-6.06877e-05,0.0586623,0.0586201
272,-6.06877e-05,0.0586623,0.0586201
273,-6.06877e-05,0.0586623,0.0586201
274,-6.06877e-05,0.0586623,0.0586201
275,0.00168577,0.0586201,0.0586201
276,0,0.0586201,0.0586201
277,0,0.0586201,0.0586201
278,0.00174646,0.058578,0.0586201
279,6.06877e-05,0.058578,0.0586201
280,6.06877e-05,0.058578,0.0586201
281,0.00180699,0.0585358,0.0586201
282,-0.00162493,0.058578,0.0586201
283,6.06877e-05,0.058578,0.0586201
284,6.06877e-05,0.058578,0.0586201
285,6.06877e-05,0.058578,0.0586201
286,-0.00168577,0.0586201,0.0586201
287,-0.00174646,0.0586623,0.0586201
288,-6.06877e-05,0.0586623,0.0586201
289,-6.06877e-05,0.0586623,0.0586201
290,-0.00180699,0.0587044,0.0586201
291,0.00162493,0.0586623,0.0586201
292,-6.06877e-05,0.0586623,0.0586201
293,-6.06877e-05,0.0586623,0.0586201
294,-6.06877e-05,0.0586623,0.0586201
295,0.00168577,0.0586201,0.0586201
296,0,0.0586201,0.0586201
297,0,0.0586201,0.0586201
298,0,0.0586201,0.0586201
299,0,0.0586201,0.0586201
300,0.00174646,0.058578,0.0586201
301,6.06877e-05,0.058578,0.0586201
302,6.06877e-05,0.058578,0.0586201
303,6.06877e-05,0.058578,0.0586201
304,6.06877e-05,0.058578,0.0586201
305,6.06877e-05,0.058578,0.0586201
306,-0.00168577,0.0586201,0.0586201
307,0,0.0586201,0.0586201
308,-0.00174646,0.0586623,0.0586201
309,-6.06877e-05,0.0586623,0.0586201
310,-6.06877e-05,0.0586623,0.0586201
311,-6.06877e-05,0.0586623,0.0586201
312,-6.06877e-05,0.0586623,0.0586201
313,-6.06877e-05,0.0586623,0.0586201
314,-6.06877e-05,0.0586623,0.0586201
315,-6.06877e-05,0.0586623,0.0586201
316,0.00168577,0.0586201,0.0586201
317,0,0.0586201,0.0586201
318,0,0.0586201,0.0586201
319,0,0.0586201,0.0586201
320,0,0.0586201,0.0586201
321,0.00174646,0.058578,0.0586201
322,6.06877e-05,0.058578,0.0586201
323,-0.00168577,0.0586201,0.0586201
324,0,0.0586201,0.0586201
325,0,0.0586201,0.0586201
326,-0.00174646,0.0586623,0.0586201
327,0.00168577,0.0586201,0.0586201
328,0,0.0586201,0.0586201
329,-0.00174646,0.0586623,0.0586201
330,0.00168577,0.0586201,0.0586201
331,-0.00174646,0.0586623,0.0586201
332,0.00168577,0.0586201,0.0586201
333,-0.00174646,0.0586623,0.0586201
334,0.00168577,0.0586201,0.0586201
335,0,0.0586201,0.0586201
336,0,0.0586201,0.0586201
337,0,0.0586201,0.0586201
338,0,0.0586201,0.0586201
339,0,0.0586201,0.0586201
340,0,0.0586201,0.0586201
341,0,0.0586201,0.0586201
342,0,0.0586201,0.0586201
343,0,0.0586201,0.0586201
344,0,0.0586201,0.0586201
345,0,0.0586201,0.0586201
346,0,0.0586201,0.0586201
347,0,0.0586201,0.0586201
348,0,0.0586201,0.0586201
349,0,0.0586201,0.0586201
350,0,0.0586201,0.0586201
351,0,0.0586201,0.0586201
352,0,0.0586201,0.0586201
353,0,0.0586201,0.0586201
354,0,0.0586201,0.0586201
355,0,0.0586201,0.0586201
356,0,0.0586201,0.0586201
357,0,0.0586201,0.0586201
358,-0.00174646,0.0586623,0.0586201
359,-6.06877e-05,0.0586623,0.0586201
360,-6.06877e-05,0.0586623,0.0586201
361,0.00168577,0.0586201,0.0586201
362,0,0.0586201,0.0586201
363,0,0.0586201,0.0586201
364,0,0.0586201,0.0586201
365,0,0.0586201,0.0586201
366,0.00174646,0.058578,0.0586201
367,-0.00168577,0.0586201,0.0586201
368,0,0.0586201,0.0586201
369,0,0.0586201,0.0586201
370,0,0.0586201,0.0586201
371,0,0.0586201,0.0586201
372,0,0.0586201,0.0586201
373,0,0.0586201,0.0586201
374,0,0.0586201,0.0586201
375,-0.00174646,0.0586623,0.0586201
376,0.00168577,0.0586201,0.0586201
377,-0.00174646,0.0586623,0.0586201
378,-6.06877e-05,0.0586623,0.0586201
379,0.00168577,0.0586201,0.0586201
380,-0.00174646,0.0586623,0.0586201
381,-6.06877e-05,0.0586623,0.0586201
382,0.00168577,0.0586201,0.0586201
383,-0.00174646,0.0586623,0.0586201
384,0.00168577,0.0586201,0.0586201
385,0,0.0586201,0.0586201
386,0,0.0586201,0.0586201
387,0,0.0586201,0.0586201
388,0,0.0586201,0.0586201
389,0,0.0586201,0.0586201
390,0,0.0586201,0.0586201
391,0,0.0586201,0.0586201
392,0,0.0586201,0.0586201
393,0,0.0586201,0.0586201
394,0,0.0586201,0.0586201
395,-0.00174646,0.0586623,0.0586201
396,-6.06877e-05,0.0586623,0.0586201
397,0.00168577,0.0586201,0.0586201
398,0,0.0586201,0.0586201
399,0,0.0586201,0.0586201
400,-0.00174646,0.0586623,0.0586201
401,0.00168577,0.0586201,0.0586201
402,0,0.0586201,0.0586201
403,0,0.0586201,0.0586201
404,0,0.0586201,0.0586201
405,0,0.0586201,0.0586201
406,0,0.0586201,0.0586201
407,0,0.0586201,0.0586201
408,0,0.0586201,0.0586201
409,0,0.0586201,0.0586201
410,0,0.0586201,0.0586201
411,0,0.0586201,0.0586201
412,0,0.0586201,0.0586201
413,0,0.0586201,0.0586201
414,0,0.0586201,0.0586201
415,0,0.0586201,0.0586201
416,0,0.0586201,0.0586201
417,0.00174646,0.058578,0.0586201
418,-0.00168577,0.0586201,0.0586201
419,0,0.0586201,0.0586201
420,0,0.0586201,0.0586201
421,0,0.0586201,0.0586201
422,0,0.0586201,0.0586201
423,0.00174646,0.058578,0.0586201
424,-0.00168577,0.0586201,0.0586201
425,-0.00174646,0.0586623,0.0586201
426,-6.06877e-05,0.0586623,0.0586201
427,-6.06877e-05,0.0586623,0.0586201
428,-6.06877e-05,0.0586623,0.0586201
429,-6.06877e-05,0.0586623,0.0586201
430,0.00168577,0.0586201,0.0586201
431,-0.00174646,0.0586623,0.0586201
432,-6.06877e-05,0.0586623,0.0586201
433,0.00168577,0.0586201,0.0586201
434,0,0.0586201,0.0586201
435,0,0.0586201,0.0586201
436,0,0.0586201,0.0586201
437,0,0.0586201,0.0586201
438,0,0.0586201,0.0586201
439,0,0.0586201,0.0586201
440,0,0.0586201,0.0586201
441,0,0.0586201,0.0586201
442,0,0.0586201,0.0586201
443,0,0.0586201,0.0586201
444,0,0.0586201,0.0586201
445,0,0.0586201,0.0586201
446,0,0.0586201,0.0586201
447,0,0.0586201,0.0586201
448,0,0.0586201,0.0586201
449,0,0.0586201,0.0586201
450,0,0.0586201,0.0586201
451,0,0.0586201,0.0586201
452,0,0.0586201,0.0586201
453,0,0.0586201,0.0586201
454,0,0.0586201,0.0586201
455,-0.00174646,0.0586623,0.0586201
456,0.00168577,0.0586201,0.0586201
457,0,0.0586201,0.0586201
458,0,0.0586201,0.0586201
459,-0.00174646,0.0586623,0.0586201
460,0.00168577,0.0586201,0.0586201
461,-0.00174646,0.0586623,0.0586201
462,0.00168577,0.0586201,0.0586201
463,0,0.0586201,0.0586201
464,0,0.0586201,0.0586201
465,0,0.0586201,0.0586201
466,0,0.0586201,0.0586201
467,0,0.0586201,0.0586201
468,0,0.0586201,0.0586201
469,0,0.0586201,0.0586201
470,0,0.0586201,0.0586201
471,0,0.0586201,0.0586201
472,0,0.0586201,0.0586201
473,0,0.0586201,0.0586201
474,0,0.0586201,0.0586201
475,-0.00174646,0.0586623,0.0586201
476,0.00168577,0.0586201,0.0586201
477,0,0.0586201,0.0586201
478,0,0.0586201,0.0586201
479,0,0.0586201,0.0586201
480,0,0.0586201,0.0586201
481,0,0.0586201,0.0586201
482,0,0.0586201,0.0586201
483,0,0.0586201,0.0586201
484,0,0.0586201,0.0586201
485,0,0.0586201,0.0586201
486,0,0.0586201,0.0586201
487,-0.00174646,0.0586623,0.0586201
488,0.00168577,0.0586201,0.0586201
489,-0.00174646,0.0586623,0.0586201
490,0.00168577,0.0586201,0.0586201
491,-0.00174646,0.0586623,0.0586201
492,0.00168577,0.0586201,0.0586201
493,0,0.0586201,0.0586201
494,0,0.0586201,0.0586201
495,0,0.0586201,0.0586201
496,0,0.0586201,0.0586201
497,0,0.0586201,0.0586201
498,0,0.0586201,0.0586201
499,-0.00174646,0.0586623,0.0586201
500,-6.06877e-05,0.0586623,0.0586201
501,0.00168577,0.0586201,0.0586201
502,0,0.0586201,0.0586201
503,0,0.0586201,0.0586201
504,0,0.0586201,0.0586201
505,0,0.0586201,0.0586201
506,0,0.0586201,0.0586201
507,0,0.0586201,0.0586201
508,0,0.0586201,0.0586201
509,0,0.0586201,0.0586201
510,0,0.0586201,0.0586201
511,0,0.0586201,0.0586201
512,-0.00174646,0.0586623,0.0586201
513,0.00168577,0.0586201,0.0586201
514,0,0.0586201,0.0586201
515,-0.00174646,0.0586623,0.0586201
516,0.00168577,0.0586201,0.0586201
517,-0.00174646,0.0586623,0.0586201
518,0.00168577,0.0586201,0.0586201
519,0,0.0586201,0.0586201
520,0,0.0586201,0.0586201
521,0,0.0586201,0.0586201
522,0,0.0586201,0.0586201
523,0,0.0586201,0.0586201
524,0,0.0586201,0.0586201
525,0,0.0586201,0.0586201
526,-0.00174646,0.0586623,0.0586201
527,0.00168577,0.0586201,0.0586201
528,-0.00174646,0.0586623,0.0586201
529,0.00168577,0.0586201,0.0586201
530,-0.00174646,0.0586623,0.0586201
531,-6.06877e-05,0.0586623,0.0586201
532,-6.06877e-05,0.0586623,0.0586201
533,-6.06877e-05,0.0586623,0.0586201
534,-6.06877e-05,0.0586623,0.0586201
535,0.00168577,0.0586201,0.0586201
536,-0.00174646,0.0586623,0.0586201
537,0.00168577,0.0586201,0.0586201
538,0,0.0586201,0.0586201
539,0,0.0586201,0.0586201
540,0,0.0586201,0.0586201
541,0,0.0586201,0.0586201
542,0.00174646,0.058578,0.0586201
543,6.06877e-05,0.058578,0.0586201
544,6.06877e-05,0.058578,0.0586201
545,-0.00168577,0.0586201,0.0586201
546,0,0.0586201,0.0586201
547,0,0.0586201,0.0586201
548,-0.00174646,0.0586623,0.0586201
549,-6.06877e-05,0.0586623,0.0586201
550,-6.06877e-05,0.0586623,0.0586201
551,-6.06877e-05,0.0586623,0.0586201
552,-6.06877e-05,0.0586623,0.0586201
553,-6.06877e-05,0.0586623,0.0586201
554,0.00168577,0.0586201,0.0586201
555,0,0.0586201,0.0586201
556,0,0.0586201,0.0586201
557,0.00174646,0.058578,0.0586201
558,-0.00168577,0.0586201,0.0586201
559,0.00174646,0.058578,0.0586201
560,6.06877e-05,0.058578,0.0586201
561,6.06877e-05,0.058578,0.0586201
562,-0.00168577,0.0586201,0.0586201
563,0,0.0586201,0.0586201
564,-0.00174646,0.0586623,0.0586201
565,-6.06877e-05,0.0586623,0.0586201
566,-6.06877e-05,0.0586623,0.0586201
567,-6.06877e-05,0.0586623,0.0586201
568,-0.00180699,0.0587044,0.0586201
569,0.00162493,0.0586623,0.0586201
570,-6.06877e-05,0.0586623,0.0586201
571,-6.06877e-05,0.0586623,0.0586201
572,0.00168577,0.0586201,0.0586201
573,0,0.0586201,0.0586201
574,0,0.0586201,0.0586201
575,0,0.0586201,0.0586201
576,0.00174646,0.058578,0.0586201
577,-0.00168577,0.0586201,0.0586201
578,0,0.0586201,0.0586201
579,0,0.0586201,0.0586201
580,0,0.0586201,0.0586201
581,0,0.0586201,0.0586201
582,0,0.0586201,0.0586201
583,0,0.0586201,0.0586201
584,-0.00174646,0.0586623,0.0586201
585,-6.06877e-05,0.0586623,0.0586201
586,-6.06877e-05,0.0586623,0.0586201
587,-6.06877e-05,0.0586623,0.0586201
588,-6.06877e-05,0.0586623,0.0586201
589,-6.06877e-05,0.0586623,0.0586201
590,0.00168577,0.0586201,0.0586201
591,0,0.0586201,0.0586201
592,0,0.0586201,0.0586201
593,0.00174646,0.058578,0.0586201
594,6.06877e-05,0.058578,0.0586201
595,6.06877e-05,0.058578,0.0586201
596,-0.00168577,0.0586201,0.0586201
597,0.00174646,0.058578,0.0586201
598,-0.00168577,0.0586201,0.0586201
599,-0.00174646,0.0586623,0.0586201
600,-6.06877e-05,0.0586623,0.0586201
601,-6.06877e-05,0.0586623,0.0586201
602,-6.06877e-05,0.0586623,0.0586201
603,-6.06877e-05,0.0586623,0.0586201
604,-6.06877e-05,0.0586623,0.0586201
605,0.00168577,0.0586201,0.0586201
606,0,0.0586201,0.0586201
607,0,0.0586201,0.0586201
608,0,0.0586201,0.0586201
609,0.00174646,0.058578,0.0586201
610,6.06877e-05,0.058578,0.0586201
611,6.06877e-05,0.058578,0.0586201
612,6.06877e-05,0.058578,0.0586201
613,-0.00168577,0.0586201,0.0586201
614,0,0.0586201,0.0586201
615,0,0.0586201,0.0586201
616,0,0.0586201,0.0586201
617,-0.00174646,0.0586623,0.0586201
618,-6.06877e-05,0.0586623,0.0586201
619,-6.06877e-05,0.0586623,0.0586201
620,-6.06877e-05,0.0586623,0.0586201
621,-0.00180699,0.0587044,0.0586201
622,0.00162493,0.0586623,0.0586201
623,-6.06877e-05,0.0586623,0.0586201
624,0.00168577,0.0586201,0.0586201
625,0,0.0586201,0.0586201
626,0,0.0586201,0.0586201
627,0,0.0586201,0.0586201
628,0,0.0586201,0.0586201
629,0,0.0586201,0.0586201
630,0.00174646,0.058578,0.0586201
631,-0.00168577,0.0586201,0.0586201
632,0,0.0586201,0.0586201
633,0,0.0586201,0.0586201
634,0,0.0586201,0.0586201
635,0,0.0586201,0.0586201
636,-0.00174646,0.0586623,0.0586201
637,-6.06877e-05,0.0586623,0.0586201
638,-6.06877e-05,0.0586623,0.0586201
639,-6.06877e-05,0.0586623,0.0586201
640,-6.06877e-05,0.0586623,0.0586201
641,-6.06877e-05,0.0586623,0.0586201
642,-6.06877e-05,0.0586623,0.0586201
643,0.00168577,0.0586201,0.0586201
644,0,0.0586201,0.0586201
645,0,0.0586201,0.0586201
646,0,0.0586201,0.0586201
647,0,0.0586201,0.0586201
648,0.00174646,0.058578,0.0586201
649,6.06877e-05,0.058578,0.0586201
650,6.06877e-05,0.058578,0.0586201
651,-0.00168577,0.0586201,0.0586201
652,0,0.0586201,0.0586201
653,0,0.0586201,0.0586201
654,0,0.0586201,0.0586201
655,-0.00174646,0.0586623,0.0586201
656,0.00168577,0.0586201,0.0586201
657,-0.00174646,0.0586623,0.0586201
658,-0.00180699,0.0587044,0.0586201
659,0.00162493,0.0586623,0.0586201
660,-6.06877e-05,0.0586623,0.0586201
661,-6.06877e-05,0.0586623,0.0586201
662,-6.06877e-05,0.0586623,0.0586201
663,-6.06877e-05,0.0586623,0.0586201
664,0.00168577,0.0586201,0.0586201
665,0,0.0586201,0.0586201
666,0,0.0586201,0.0586201
667,0.00174646,0.058578,0.0586201
668,6.06877e-05,0.058578,0.0586201
669,-0.00168577,0.0586201,0.0586201
670,0,0.0586201,0.0586201
671,0,0.0586201,0.0586201
672,-0.00174646,0.0586623,0.0586201
673,0.00168577,0.0586201,0.0586201
674,0,0.0586201,0.0586201
675,0,0.0586201,0.0586201
676,0,0.0586201,0.0586201
677,0,0.0586201,0.0586201
678,0,0.0586201,0.0586201
679,-0.00174646,0.0586623,0.0586201
680,0.00168577,0.0586201,0.0586201
681,0,0.0586201,0.0586201
682,-0.00174646,0.0586623,0.0586201
683,-6.06877e-05,0.0586623,0.0586201
684,-6.06877e-05,0.0586623,0.0586201
685,-6.06877e-05,0.0586623,0.0586201
686,-6.06877e-05,0.0586623,0.0586201
687,0.00168577,0.0586201,0.0586201
688,0,0.0586201,0.0586201
689,0,0.0586201,0.0586201
690,0,0.0586201,0.0586201
691,0,0.0586201,0.0586201
692,0,0.0586201,0.0586201
693,0,0.0586201,0.0586201
694,0,0.0586201,0.0586201
695,0,0.0586201,0.0586201
696,0,0.0586201,0.0586201
697,0,0.0586201,0.0586201
698,0,0.0586201,0.0586201
699,-0.00174646,0.0586623,0.0586201
700,0.00168577,0.0586201,0.0586201
701,0,0.0586201,0.0586201
702,-0.00174646,0.0586623,0.0586201
703,0.00168577,0.0586201,0.0586201
704,0,0.0586201,0.0586201
705,0,0.0586201,0.0586201
706,0,0.0586201,0.0586201
707,0,0.0586201,0.0586201
708,0,0.0586201,0.0586201
709,0.00174646,0.058578,0.0586201
710,-0.00168577,0.0586201,0.0586201
711,0.00174646,0.058578,0.0586201
712,-0.00168577,0.0586201,0.0586201
713,0.00174646,0.058578,0.0586201
714,-0.00168577,0.0586201,0.0586201
715,0,0.0586201,0.0586201
716,0,0.0586201,0.0586201
717,-0.00174646,0.0586623,0.0586201
718,-6.06877e-05,0.0586623,0.0586201
719,-6.06877e-05,0.0586623,0.0586201
720,-6.06877e-05,0.0586623,0.0586201
721,0.00168577,0.0586201,0.0586201
722,0,0.0586201,0.0586201
723,0,0.0586201,0.0586201
724,0,0.0586201,0.0586201
725,0.00174646,0.058578,0.0586201
726,6.06877e-05,0.058578,0.0586201
727,6.06877e-05,0.058578,0.0586201
728,6.06877e-05,0.058578,0.0586201
729,6.06877e-05,0.058578,0.0586201
730,6.06877e-05,0.058578,0.0586201
731,-0.00168577,0.0586201,0.0586201
732,0,0.0586201,0.0586201
733,0.00174646,0.058578,0.0586201
734,-0.00168577,0.0586201,0.0586201
735,0,0.0586201,0.0586201
736,0,0.0586201,0.0586201
737,0,0.0586201,0.0586201
738,0,0.0586201,0.0586201
739,0,0.0586201,0.0586201
740,-0.00174646,0.0586623,0.0586201
741,0.00343222,0.058578,0.0586201
742,-0.00168577,0.0586201,0.0586201
743,0.00174646,0.058578,0.0586201
744,-0.00168577,0.0586201,0.0586201
745,0,0.0586201,0.0586201
746,0,0.0586201,0.0586201
747,0,0.0586201,0.0586201
748,-0.00174646,0.0586623,0.0586201
749,-6.06877e-05,0.0586623,0.0586201
750,0.00168577,0.0586201,0.0586201
751,-0.00174646,0.0586623,0.0586201
752,-6.06877e-05,0.0586623,0.0586201
753,-6.06877e-05,0.0586623,0.0586201
754,-6.06877e-05,0.0586623,0.0586201
755,-6.06877e-05,0.0586623,0.0586201
756,0.00168577,0.0586201,0.0586201
757,0,0.0586201,0.0586201
758,0,0.0586201,0.0586201
759,0,0.0586201,0.0586201
760,0,0.0586201,0.0586201
761,0,0.0586201,0.0586201
762,0,0.0586201,0.0586201
763,0.00174646,0.058578,0.0586201
764,6.06877e-05,0.058578,0.0586201
765,6.06877e-05,0.058578,0.0586201
766,-0.00168577,0.0586201,0.0586201
767,0,0.0586201,0.0586201
768,0,0.0586201,0.0586201
769,0,0.0586201,0.0586201
770,0,0.0586201,0.0586201
771,0,0.0586201,0.0586201
772,0,0.0586201,0.0586201
773,0.00174646,0.058578,0.0586201
774,-0.00168577,0.0586201,0.0586201
775,0.00174646,0.058578,0.0586201
776,-0.00168577,0.0586201,0.0586201
777,0,0.0586201,0.0586201
778,0,0.0586201,0.0586201
779,-0.00174646,0.0586623,0.0586201
780,-6.06877e-05,0.0586623,0.0586201
781,-6.06877e-05,0.0586623,0.0586201
782,-6.06877e-05,0.0586623,0.0586201
783,-0.00180699,0.0587044,0.0586201
784,0.00162493,0.0586623,0.0586201
785,-0.00180699,0.0587044,0.0586201
786,0.00162493,0.0586623,0.0586201
787,-6.06877e-05,0.0586623,0.0586201
788,0.00168577,0.0586201,0.0586201
789,-0.00174646,0.0586623,0.0586201
790,0.00168577,0.0586201,0.0586201
791,0,0.0586201,0.0586201
792,0,0.0586201,0.0586201
793,0.00174646,0.058578,0.0586201
794,-0.00168577,0.0586201,0.0586201
795,0,0.0586201,0.0586201
796,0,0.0586201,0.0586201
797,0,0.0586201,0.0586201
798,-0.00174646,0.0586623,0.0586201
799,-6.06877e-05,0.0586623,0.0586201
800,-6.06877e-05,0.0586623,0.0586201
801,0.00168577,0.0586201,0.0586201
802,0,0.0586201,0.0586201
803,0,0.0586201,0.0586201
804,0,0.0586201,0.0586201
805,0,0.0586201,0.0586201
806,0,0.0586201,0.0586201
807,0,0.0586201,0.0586201
808,-0.00174646,0.0586623,0.0586201
809,-6.06877e-05,0.0586623,0.0586201
810,-6.06877e-05,0.0586623,0.0586201
811,-6.06877e-05,0.0586623,0.0586201
812,-6.06877e-05,0.0586623,0.0586201
813,0.00168577,0.0586201,0.0586201
814,0,0.0586201,0.0586201
815,0,0.0586201,0.0586201
816,0,0.0586201,0.0586201
817,0,0.0586201,0.0586201
818,0,0.0586201,0.0586201
819,0.00174646,0.058578,0.0586201
820,-0.00168577,0.0586201,0.0586201
821,0,0.0586201,0.0586201
822,0,0.0586201,0.0586201
823,0,0.0586201,0.0586201
824,0,0.0586201,0.0586201
825,0,0.0586201,0.0586201
826,0,0.0586201,0.0586201
827,0,0.0586201,0.0586201
828,0,0.0586201,0.0586201
829,0,0.0586201,0.0586201
830,0,0.0586201,0.0586201
831,-0.00174646,0.0586623,0.0586201
832,0.00168577,0.0586201,0.0586201
833,0,0.0586201,0.0586201
834,0,0.0586201,0.0586201
835,0,0.0586201,0.0586201
836,0,0.0586201,0.0586201
837,-0.00174646,0.0586623,0.0586201
838,-6.06877e-05,0.0586623,0.0586201
839,-6.06877e-05,0.0586623,0.0586201
840,-6.06877e-05,0.0586623,0.0586201
841,-6.06877e-05,0.0586623,0.0586201
842,-6.06877e-05,0.0586623,0.0586201
843,0.00168577,0.0586201,0.0586201
844,0,0.0586201,0.0586201
845,0,0.0586201,0.0586201
846,0,0.0586201,0.0586201
847,0,0.0586201,0.0586201
848,0.00174646,0.058578,0.0586201
849,-0.00168577,0.0586201,0.0586201
850,0,0.0586201,0.0586201
851,-0.00174646,0.0586623,0.0586201
852,0.00168577,0.0586201,0.0586201
853,-0.00174646,0.0586623,0.0586201
854,-6.06877e-05,0.0586623,0.0586201
855,-6.06877e-05,0.0586623,0.0586201
856,-6.06877e-05,0.0586623,0.0586201
857,-0.00180699,0.0587044,0.0586201
858,0.00162493,0.0586623,0.0586201
859,-6.06877e-05,0.0586623,0.0586201
860,-6.06877e-05,0.0586623,0.0586201
861,0.00168577,0.0586201,0.0586201
862,0,0.0586201,0.0586201
863,0.00174646,0.058578,0.0586201
864,-0.00168577,0.0586201,0.0586201
865,0.00174646,0.058578,0.0586201
866,6.06877e-05,0.058578,0.0586201
867,-0.00168577,0.0586201,0.0586201
868,0.00174646,0.058578,0.0586201
869,-0.00168577,0.0586201,0.0586201
870,0.00174646,0.058578,0.0586201
871,-0.00168577,0.0586201,0.0586201
872,0,0.0586201,0.0586201
873,0,0.0586201,0.0586201
874,-0.00174646,0.0586623,0.0586201
875,0.00168577,0.0586201,0.0586201
876,-0.00174646,0.0586623,0.0586201
877,-6.06877e-05,0.0586623,0.0586201
878,-6.06877e-05,0.0586623,0.0586201
879,0.00168577,0.0586201,0.0586201
880,0,0.0586201,0.0586201
881,0,0.0586201,0.0586201
882,0,0.0586201,0.0586201
883,0,0.0586201,0.0586201
884,0,0.0586201,0.0586201
885,0,0.0586201,0.0586201
886,0,0.0586201,0.0586201
887,0,0.0586201,0.0586201
888,0,0.0586201,0.0586201
889,0,0.0586201,0.0586201
890,-0.00174646,0.0586623,0.0586201
891,-6.06877e-05,0.0586623,0.0586201
892,-6.06877e-05,0.0586623,0.0586201
893,-6.06877e-05,0.0586623,0.0586201
894,-6.06877e-05,0.0586623,0.0586201
895,0.00168577,0.0586201,0.0586201
896,0,0.0586201,0.0586201
897,0,0.0586201,0.0586201
898,0,0.0586201,0.0586201
899,0,0.0586201,0.0586201
900,0,0.0586201,0.0586201
901,0,0.0586201,0.0586201
902,0,0.0586201,0.0586201
903,0,0.0586201,0.0586201
904,0,0.0586201,0.0586201
905,0,0.0586201,0.0586201
906,0,0.0586201,0.0586201
907,0,0.0586201,0.0586201
908,0,0.0586201,0.0586201
909,0,0.0586201,0.0586201
910,0,0.0586201,0.0586201
911,0.00174646,0.058578,0.0586201
912,-0.00168577,0.0586201,0.0586201
913,0.00174646,0.058578,0.0586201
914,6.06877e-05,0.058578,0.0586201
915,-0.00168577,0.0586201,0.0586201
916,0,0.0586201,0.0586201
917,0,0.0586201,0.0586201
918,-0.00174646,0.0586623,0.0586201
919,0.00168577,0.0586201,0.0586201
920,-0.00174646,0.0586623,0.0586201
921,-6.06877e-05,0.0586623,0.0586201
922,-0.00180699,0.0587044,0.0586201
923,0.00162493,0.0586623,0.0586201
924,-6.06877e-05,0.0586623,0.0586201
925,-6.06877e-05,0.0586623,0.0586201
926,0.00168577,0.0586201,0.0586201
927,-0.00174646,0.0586623,0.0586201
928,-6.06877e-05,0.0586623,0.0586201
929,0.00168577,0.0586201,0.0586201
930,0,0.0586201,0.0586201
931,0,0.0586201,0.0586201
932,0.00174646,0.058578,0.0586201
933,6.06877e-05,0.058578,0.0586201
934,6.06877e-05,0.058578,0.0586201
935,6.06877e-05,0.058578,0.0586201
936,-0.00168577,0.0586201,0.0586201
937,0,0.0586201,0.0586201
938,-0.00174646,0.0586623,0.0586201
939,-6.06877e-05,0.0586623,0.0586201
940,-6.06877e-05,0.0586623,0.0586201
941,-0.00180699,0.0587044,0.0586201
942,0.00162493,0.0586623,0.0586201
943,-6.06877e-05,0.0586623,0.0586201
944,-6.06877e-05,0.0586623,0.0586201
945,0.00168577,0.0586201,0.0586201
946,0,0.0586201,0.0586201
947,0,0.0586201,0.0586201
948,0.00174646,0.058578,0.0586201
949,-0.00168577,0.0586201,0.0586201
950,0,0.0586201,0.0586201
951,0.00174646,0.058578,0.0586201
952,-0.00168577,0.0586201,0.0586201
953,0,0.0586201,0.0586201
954,0,0.0586201,0.0586201
955,0,0.0586201,0.0586201
956,0,0.0586201,0.0586201
957,0.00174646,0.058578,0.0586201
958,-0.00168577,0.0586201,0.0586201
959,-0.00174646,0.0586623,0.0586201
960,0.00168577,0.0586201,0.0586201
961,0,0.0586201,0.0586201
962,-0.00174646,0.0586623,0.0586201
963,-6.06877e-05,0.0586623,0.0586201
964,-6.06877e-05,0.0586623,0.0586201
965,0.00168577,0.0586201,0.0586201
966,0,0.0586201,0.0586201
967,0,0.0586201,0.0586201
968,0,0.0586201,0.0586201
969,0,0.0586201,0.0586201
970,0.00174646,0.058578,0.0586201
971,-0.00168577,0.0586201,0.0586201
972,0,0.0586201,0.0586201
973,0,0.0586201,0.0586201
974,0,0.0586201,0.0586201
975,0,0.0586201,0.0586201
976,-0.00174646,0.0586623,0.0586201
977,-6.06877e-05,0.0586623,0.0586201
978,-6.06877e-05,0.0586623,0.0586201
979,-0.00180699,0.0587044,0.0586201
980,0.00162493,0.0586623,0.0586201
981,-6.06877e-05,0.0586623,0.0586201
982,-6.06877e-05,0.0586623,0.0586201
983,-6.06877e-05,0.0586623,0.0586201
984,0.00168577,0.0586201,0.0586201
985,0,0.0586201,0.0586201
986,0,0.0586201,0.0586201
987,0,0.0586201,0.0586201
988,0.00174646,0.058578,0.0586201
989,6.06877e-05,0.058578,0.0586201
990,-0.00168577,0.0586201,0.0586201
991,0,0.0586201,0.0586201
992,0,0.0586201,0.0586201
993,0,0.0586201,0.0586201
994,-0.00174646,0.0586623,0.0586201
995,-6.06877e-05,0.0586623,0.0586201
996,-6.06877e-05,0.0586623,0.0586201
997,-6.06877e-05,0.0586623,0.0586201
998,-6.06877e-05,0.0586623,0.0586201
999,-6.06877e-05,0.0586623,0.0586201
1000,-0.00180699,0.0587044,0.0586201
1001,0.00162493,0.0586623,0.0586201
1002,-6.06877e-05,0.0586623,0.0586201
1003,-6.06877e-05,0.0586623,0.0586201
1004,0.00168577,0.0586201,0.0586201
1005,0,0.0586201,0.0586201
1006,0,0.0586201,0.0586201
1007,0,0.0586201,0.0586201
1008,0.00174646,0.058578,0.0586201
1009,6.06877e-05,0.058578,0.0586201
1010,6.06877e-05,0.058578,0.0586201
1011,6.06877e-05,0.058578,0.0586201
1012,-0.00168577,0.0586201,0.0586201
1013,0,0.0586201,0.0586201
1014,0,0.0586201,0.0586201
1015,0,0.0586201,0.0586201
1016,-0.00174646,0.0586623,0.0586201
1017,-6.06877e-05,0.0586623,0.0586201
1018,-6.06877e-05,0.0586623,0.0586201
1019,-6.06877e-05,0.0586623,0.0586201
1020,-6.06877e-05,0.0586623,0.0586201
1021,-6.06877e-05,0.0586623,0.0586201
1022,0.00168577,0.0586201,0.0586201
1023,0,0.0586201,0.0586201
1024,0.00174646,0.058578,0.0586201
1025,6.06877e-05,0.058578,0.0586201
1026,6.06877e-05,0.058578,0.0586201
1027,6.06877e-05,0.058578,0.0586201
1028,-0.00168577,0.0586201,0.0586201
1029,0.00174646,0.058578,0.0586201
1030,-0.00168577,0.0586201,0.0586201
1031,0,0.0586201,0.0586201
1032,0,0.0586201,0.0586201
1033,0,0.0586201,0.0586201
1034,-0.00174646,0.0586623,0.0586201
1035,-6.06877e-05,0.0586623,0.0586201
1036,-6.06877e-05,0.0586623,0.0586201
1037,-6.06877e-05,0.0586623,0.0586201
1038,0.00168577,0.0586201,0.0586201
1039,0,0.0586201,0.0586201
1040,0,0.0586201,0.0586201
1041,0,0.0586201,0.0586201
1042,0,0.0586201,0.0586201
1043,0.00174646,0.058578,0.0586201
1044,6.06877e-05,0.058578,0.0586201
1045,6.06877e-05,0.058578,0.0586201
1046,6.06877e-05,0.058578,0.0586201
1047,6.06877e-05,0.058578,0.0586201
1048,6.06877e-05,0.058578,0.0586201
1049,-0.00168577,0.0586201,0.0586201
1050,0,0.0586201,0.0586201
1051,0,0.0586201,0.0586201
1052,-0.00174646,0.0586623,0.0586201
1053,-6.06877e-05,0.0586623,0.0586201
1054,-6.06877e-05,0.0586623,0.0586201
1055,-6.06877e-05,0.0586623,0.0586201
1056,-6.06877e-05,0.0586623,0.0586201
1057,0.00168577,0.0586201,0.0586201
1058,0,0.0586201,0.0586201
1059,0,0.0586201,0.0586201
1060,0,0.0586201,0.0586201
1061,0.00174646,0.058578,0.0586201
1062,6.06877e-05,0.058578,0.0586201
1063,6.06877e-05,0.058578,0.0586201
1064,6.06877e-05,0.058578,0.0586201
1065,6.06877e-05,0.058578,0.0586201
1066,6.06877e-05,0.058578,0.0586201
1067,6.06877e-05,0.058578,0.0586201
1068,-0.00168577,0.0586201,0.0586201
1069,0,0.0586201,0.0586201
1070,0,0.0586201,0.0586201
1071,0,0.0586201,0.0586201
1072,0,0.0586201,0.0586201
1073,-0.00174646,0.0586623,0.0586201
1074,-6.06877e-05,0.0586623,0.0586201
1075,0.00168577,0.0586201,0.0586201
1076,-0.00174646,0.0586623,0.0586201
1077,0.00168577,0.0586201,0.0586201
1078,0,0.0586201,0.0586201
1079,0,0.0586201,0.0586201
1080,0,0.0586201,0.0586201
1081,0,0.0586201,0.0586201
1082,0,0.0586201,0.0586201
1083,0,0.0586201,0.0586201
1084,0,0.0586201,0.0586201
1085,0,0.0586201,0.0586201
1086,0,0.0586201,0.0586201
1087,0,0.0586201,0.0586201
1088,-0.00174646,0.0586623,0.0586201
1089,-6.06877e-05,0.0586623,0.0586201
1090,0.00168577,0.0586201,0.0586201
1091,0,0.0586201,0.0586201
1092,0,0.0586201,0.0586201
1093,-0.00174646,0.0586623,0.0586201
1094,0.00168577,0.0586201,0.0586201
1095,0,0.0586201,0.0586201
1096,0,0.0586201,0.0586201
1097,0,0.0586201,0.0586201
1098,0,0.0586201,0.0586201
1099,0,0.0586201,0.0586201
1100,0,0.0586201,0.0586201
1101,0,0.0586201,0.0586201
1102,0,0.0586201,0.0586201
1103,0,0.0586201,0.0586201
1104,0,0.0586201,0.0586201
1105,0.00174646,0.058578,0.0586201
1106,-0.00168577,0.0586201,0.0586201
1107,0.00174646,0.058578,0.0586201
1108,-0.00168577,0.0586201,0.0586201
1109,0,0.0586201,0.0586201
1110,0,0.0586201,0.0586201
1111,0,0.0586201,0.0586201
1112,-0.00174646,0.0586623,0.0586201
1113,0.00168577,0.0586201,0.0586201
1114,0,0.0586201,0.0586201
1115,-0.00174646,0.0586623,0.0586201
1116,-6.06877e-05,0.0586623,0.0586201
1117,-6.06877e-05,0.0586623,0.0586201
1118,-6.06877e-05,0.0586623,0.0586201
1119,0.00168577,0.0586201,0.0586201
1120,0,0.0586201,0.0586201
1121,0,0.0586201,0.0586201
1122,0.00174646,0.058578,0.0586201
1123,-0.00168577,0.0586201,0.0586201
1124,0.00174646,0.058578,0.0586201
1125,6.06877e-05,0.058578,0.0586201
1126,-0.00168577,0.0586201,0.0586201
1127,0.00174646,0.058578,0.0586201
1128,-0.00168577,0.0586201,0.0586201
1129,0,0.0586201,0.0586201
1130,0,0.0586201,0.0586201
1131,0,0.0586201,0.0586201
1132,-0.00174646,0.0586623,0.0586201
1133,-6.06877e-05,0.0586623,0.0586201
1134,-6.06877e-05,0.0586623,0.0586201
1135,-6.06877e-05,0.0586623,0.0586201
1136,0.00168577,0.0586201,0.0586201
1137,0,0.0586201,0.0586201
1138,0,0.0586201,0.0586201
1139,0,0.0586201,0.0586201
1140,0,0.0586201,0.0586201
1141,0.00174646,0.058578,0.0586201
1142,-0.00168577,0.0586201,0.0586201
1143,0,0.0586201,0.0586201
1144,0.00174646,0.058578,0.0586201
1145,-0.00168577,0.0586201,0.0586201
1146,0,0.0586201,0.0586201
1147,0,0.0586201,0.0586201
1148,0,0.0586201,0.0586201
1149,-0.00174646,0.0586623,0.0586201
1150,-6.06877e-05,0.0586623,0.0586201
1151,-6.06877e-05,0.0586623,0.0586201
1152,-6.06877e-05,0.0586623,0.0586201
1153,0.00168577,0.0586201,0.0586201
1154,0,0.0586201,0.0586201
1155,-0.00174646,0.0586623,0.0586201
1156,0.00168577,0.0586201,0.0586201
1157,0,0.0586201,0.0586201
1158,0,0.0586201,0.0586201
1159,0,0.0586201,0.0586201
1160,0.00174646,0.058578,0.0586201
1161,6.06877e-05,0.058578,0.0586201
1162,-0.00168577,0.0586201,0.0586201
1163,0.00174646,0.058578,0.0586201
1164,-0.00168577,0.0586201,0.0586201
1165,0,0.0586201,0.0586201
1166,0,0.0586201,0.0586201
1167,0,0.0586201,0.0586201
1168,0,0.0586201,0.0586201
1169,-0.00174646,0.0586623,0.0586201
1170,-6.06877e-05,0.0586623,0.0586201
1171,-6.06877e-05,0.0586623,0.0586201
1172,-6.06877e-05,0.0586623,0.0586201
1173,-6.06877e-05,0.0586623,0.0586201
1174,0.00168577,0.0586201,0.0586201
1175,-0.00174646,0.0586623,0.0586201
1176,-6.06877e-05,0.0586623,0.0586201
1177,-6.06877e-05,0.0586623,0.0586201
1178,0.00168577,0.0586201,0.0586201
1179,0,0.0586201,0.0586201
1180,0,0.0586201,0.0586201
1181,0,0.0586201,0.0586201
1182,0,0.0586201,0.0586201
1183,0,0.0586201,0.0586201
1184,0,0.0586201,0.0586201
1185,0,0.0586201,0.0586201
1186,0,0.0586201,0.0586201
1187,0,0.0586201,0.0586201
1188,0,0.0586201,0.0586201
1189,0,0.0586201,0.0586201
1190,-0.00174646,0.0586623,0.0586201
1191,0.00168577,0.0586201,0.0586201
1192,0,0.0586201,0.0586201
1193,-0.00174646,0.0586623,0.0586201
1194,0.00168577,0.0586201,0.0586201
1195,0,0.0586201,0.0586201
1196,0,0.0586201,0.0586201
1197,0,0.0586201,0.0586201
1198,0,0.0586201,0.0586201
1199,0,0.0586201,0.0586201
1200,0,0.0586201,0.0586201
1201,0,0.0586201,0.0586201
1202,0,0.0586201,0.0586201
1203,0,0.0586201,0.0586201
1204,-0.00174646,0.0586623,0.0586201
1205,-6.06877e-05,0.0586623,0.0586201
1206,-6.06877e-05,0.0586623,0.0586201
1207,-6.06877e-05,0.0586623,0.0586201
1208,-6.06877e-05,0.0586623,0.0586201
1209,-6.06877e-05,0.0586623,0.0586201
1210,0.00168577,0.0586201,0.0586201
1211,0,0.0586201,0.0586201
1212,0,0.0586201,0.0586201
1213,0,0.0586201,0.0586201
1214,0.00174646,0.058578,0.0586201
1215,6.06877e-05,0.058578,0.0586201
1216,6.06877e-05,0.058578,0.0586201
1217,-0.00168577,0.0586201,0.0586201
1218,0,0.0586201,0.0586201
1219,0,0.0586201,0.0586201
1220,-0.00174646,0.0586623,0.0586201
1221,0.00168577,0.0586201,0.0586201
1222,-0.00174646,0.0586623,0.0586201
1223,-6.06877e-05,0.0586623,0.0586201
1224,-6.06877e-05,0.0586623,0.0586201
1225,-6.06877e-05,0.0586623,0.0586201
1226,-6.06877e-05,0.0586623,0.0586201
1227,0.00168577,0.0586201,0.0586201
1228,-0.00174646,0.0586623,0.0586201
1229,0.00168577,0.0586201,0.0586201
1230,0,0.0586201,0.0586201
1231,0,0.0586201,0.0586201
1232,0,0.0586201,0.0586201
1233,0,0.0586201,0.0586201
1234,0,0.0586201,0.0586201
1235,0.00174646,0.058578,0.0586201
1236,-0.00168577,0.0586201,0.0586201
1237,0,0.0586201,0.0586201
1238,0.00174646,0.058578,0.0586201
1239,-0.00168577,0.0586201,0.0586201
1240,-0.00174646,0.0586623,0.0586201
1241,0.00168577,0.0586201,0.0586201
1242,-0.00174646,0.0586623,0.0586201
1243,-6.06877e-05,0.0586623,0.0586201
1244,-6.06877e-05,0.0586623,0.0586201
1245,-6.06877e-05,0.0586623,0.0586201
1246,-6.06877e-05,0.0586623,0.0586201
1247,0.00168577,0.0586201,0.0586201
1248,0,0.0586201,0.0586201
1249,0,0.0586201,0.0586201
1250,0,0.0586201,0.0586201
1251,0,0.0586201,0.0586201
1252,0,0.0586201,0.0586201
1253,0,0.0586201,0.0586201
1254,0.00174646,0.058578,0.0586201
1255,6.06877e-05,0.058578,0.0586201
1256,6.06877e-05,0.058578,0.0586201
1257,-0.00168577,0.0586201,0.0586201
1258,0,0.0586201,0.0586201
1259,0,0.0586201,0.0586201
1260,0,0.0586201,0.0586201
1261,-0.00174646,0.0586623,0.0586201
1262,-6.06877e-05,0.0586623,0.0586201
1263,0.00168577,0.0586201,0.0586201
1264,-0.00174646,0.0586623,0.0586201
1265,0.00168577,0.0586201,0.0586201
1266,0,0.0586201,0.0586201
1267,0,0.0586201,0.0586201
1268,0,0.0586201,0.0586201
1269,0,0.0586201,0.0586201
1270,0,0.0586201,0.0586201
1271,0,0.0586201,0.0586201
1272,0.00174646,0.058578,0.0586201
1273,-0.00168577,0.0586201,0.0586201
1274,-0.00174646,0.0586623,0.0586201
1275,0.00168577,0.0586201,0.0586201
1276,-0.00174646,0.0586623,0.0586201
1277,-6.06877e-05,0.0586623,0.0586201
1278,-6.06877e-05,0.0586623,0.0586201
1279,-6.06877e-05,0.0586623,0.0586201
1280,-6.06877e-05,0.0586623,0.0586201
1281,-0.00180699,0.0587044,0.0586201
1282,0.00162493,0.0586623,0.0586201
1283,-6.06877e-05,0.0586623,0.0586201
1284,-6.06877e-05,0.0586623,0.0586201
1285,0.00168577,0.0586201,0.0586201
1286,0,0.0586201,0.0586201
1287,0,0.0586201,0.0586201
1288,0,0.0586201,0.0586201
1289,0,0.0586201,0.0586201
1290,0,0.0586201,0.0586201
1291,0,0.0586201,0.0586201
1292,0,0.0586201,0.0586201
1293,0,0.0586201,0.0586201
1294,0,0.0586201,0.0586201
1295,0,0.0586201,0.0586201
1296,-0.00174646,0.0586623,0.0586201
1297,0.00168577,0.0586201,0.0586201
1298,0,0.0586201,0.0586201
1299,-0.00174646,0.0586623,0.0586201
1300,0.00168577,0.0586201,0.0586201
1301,-0.00174646,0.0586623,0.0586201
1302,-6.06877e-05,0.0586623,0.0586201
1303,-6.06877e-05,0.0586623,0.0586201
1304,0.00168577,0.0586201,0.0586201
1305,0,0.0586201,0.0586201
1306,0,0.0586201,0.0586201
1307,0,0.0586201,0.0586201
1308,0,0.0586201,0.0586201
1309,0.00174646,0.058578,0.0586201
1310,-0.00168577,0.0586201,0.0586201
1311,0,0.0586201,0.0586201
1312,0,0.0586201,0.0586201
1313,-0.00174646,0.0586623,0.0586201
1314,0.00168577,0.0586201,0.0586201
1315,-0.00174646,0.0586623,0.0586201
1316,-6.06877e-05,0.0586623,0.0586201
1317,-6.06877e-05,0.0586623,0.0586201
1318,-6.06877e-05,0.0586623,0.0586201
1319,-6.06877e-05,0.0586623,0.0586201
1320,-6.06877e-05,0.0586623,0.0586201
1321,0.00168577,0.0586201,0.0586201
1322,0,0.0586201,0.0586201
1323,0,0.0586201,0.0586201
1324,0,0.0586201,0.0586201
1325,0.00174646,0.058578,0.0586201
1326,-0.00168577,0.0586201,0.0586201
1327,0.00174646,0.058578,0.0586201
1328,-0.00168577,0.0586201,0.0586201
1329,0,0.0586201,0.0586201
1330,0,0.0586201,0.0586201
1331,0,0.0586201,0.0586201
1332,0,0.0586201,0.0586201
1333,-0.00174646,0.0586623,0.0586201
1334,-6.06877e-05,0.0586623,0.0586201
1335,-6.06877e-05,0.0586623,0.0586201
1336,-6.06877e-05,0.0586623,0.0586201
1337,0.00168577,0.0586201,0.0586201
1338,0,0.0586201,0.0586201
1339,0,0.0586201,0.0586201
1340,0,0.0586201,0.0586201
1341,0.00174646,0.058578,0.0586201
1342,6.06877e-05,0.058578,0.0586201
1343,6.06877e-05,0.058578,0.0586201
1344,6.06877e-05,0.058578,0.0586201
1345,-0.00168577,0.0586201,0.0586201
1346,0,0.0586201,0.0586201
1347,0,0.0586201,0.0586201
1348,0,0.0586201,0.0586201
1349,-0.00174646,0.0586623,0.0586201
1350,-6.06877e-05,0.0586623,0.0586201
1351,-6.06877e-05,0.0586623,0.0586201
1352,-0.00180699,0.0587044,0.0586201
1353,-0.00012137,0.0587044,0.0586201
1354,0.00162493,0.0586623,0.0586201
1355,-6.06877e-05,0.0586623,0.0586201
1356,-6.06877e-05,0.0586623,0.0586201
1357,-6.06877e-05,0.0586623,0.0586201
1358,0.00168577,0.0586201,0.0586201
1359,0,0.0586201,0.0586201
1360,0,0.0586201,0.0586201
1361,0.00174646,0.058578,0.0586201
1362,6.06877e-05,0.058578,0.0586201
1363,6.06877e-05,0.058578,0.0586201
1364,-0.00168577,0.0586201,0.0586201
1365,0,0.0586201,0.0586201
1366,0.00174646,0.058578,0.0586201
1367,-0.00168577,0.0586201,0.0586201
1368,0,0.0586201,0.0586201
1369,0,0.0586201,0.0586201
1370,-0.00174646,0.0586623,0.0586201
1371,-6.06877e-05,0.0586623,0.0586201
1372,-6.06877e-05,0.0586623,0.0586201
1373,-6.06877e-05,0.0586623,0.0586201
1374,-6.06877e-05,0.0586623,0.0586201
1375,0.00168577,0.0586201,0.0586201
1376,-0.00174646,0.0586623,0.0586201
1377,0.00168577,0.0586201,0.0586201
1378,0,0.0586201,0.0586201
1379,0,0.0586201,0.0586201
1380,0,0.0586201,0.0586201
1381,0,0.0586201,0.0586201
1382,0,0.0586201,0.0586201
1383,0,0.0586201,0.0586201
1384,0,0.0586201,0.0586201
1385,0,0.0586201,0.0586201
1386,0,0.0586201,0.0586201
1387,-0.00174646,0.0586623,0.0586201
1388,0.00168577,0.0586201,0.0586201
1389,0,0.0586201,0.0586201
1390,0,0.0586201,0.0586201
1391,0,0.0586201,0.0586201
1392,0,0.0586201,0.0586201
1393,0,0.0586201,0.0586201
1394,0,0.0586201,0.0586201
1395,0,0.0586201,0.0586201
1396,0,0.0586201,0.0586201
1397,-0.00174646,0.0586623,0.0586201
1398,-6.06877e-05,0.0586623,0.0586201
1399,-6.06877e-05,0.0586623,0.0586201
1400,-6.06877e-05,0.0586623,0.0586201
1401,-6.06877e-05,0.0586623,0.0586201
1402,0.00168577,0.0586201,0.0586201
1403,0,0.0586201,0.0586201
1404,-0.00174646,0.0586623,0.0586201
1405,0.00168577,0.0586201,0.0586201
1406,-0.00174646,0.0586623,0.0586201
1407,-6.06877e-05,0.0586623,0.0586201
1408,-6.06877e-05,0.0586623,0.0586201
1409,0.00168577,0.0586201,0.0586201
1410,0,0.0586201,0.0586201
1411,0,0.0586201,0.0586201
1412,0,0.0586201,0.0586201
1413,0,0.0586201,0.0586201
1414,0,0.0586201,0.0586201
1415,0,0.0586201,0.0586201
1416,0,0.0586201,0.0586201
1417,-0.00174646,0.0586623,0.0586201
1418,0.00168577,0.0586201,0.0586201
1419,0,0.0586201,0.0586201
1420,0,0.0586201,0.0586201
1421,0,0.0586201,0.0586201
1422,0,0.0586201,0.0586201
1423,0,0.0586201,0.0586201
1424,0,0.0586201,0.0586201
1425,0,0.0586201,0.0586201
1426,0,0.0586201,0.0586201
1427,0,0.0586201,0.0586201
1428,0,0.0586201,0.0586201
1429,-0.00174646,0.0586623,0.0586201
1430,0.00168577,0.0586201,0.0586201
1431,-0.00174646,0.0586623,0.0586201
1432,-6.06877e-05,0.0586623,0.0586201
1433,-6.06877e-05,0.0586623,0.0586201
1434,-6.06877e-05,0.0586623,0.0586201
1435,-6.06877e-05,0.0586623,0.0586201
1436,0.00168577,0.0586201,0.0586201
1437,-0.00174646,0.0586623,0.0586201
1438,0.00168577,0.0586201,0.0586201
1439,0,0.0586201,0.0586201
1440,0,0.0586201,0.0586201
1441,0,0.0586201,0.0586201
1442,0.00174646,0.058578,0.0586201
1443,-0.00168577,0.0586201,0.0586201
1444,0,0.0586201,0.0586201
1445,0,0.0586201,0.0586201
1446,0,0.0586201,0.0586201
1447,-0.00174646,0.0586623,0.0586201
1448,-6.06877e-05,0.0586623,0.0586201
1449,-6.06877e-05,0.0586623,0.0586201
1450,-6.06877e-05,0.0586623,0.0586201
1451,-6.06877e-05,0.0586623,0.0586201
1452,-6.06877e-05,0.0586623,0.0586201
1453,0.00168577,0.0586201,0.0586201
1454,-0.00174646,0.0586623,0.0586201
1455,0.00168577,0.0586201,0.0586201
1456,0,0.0586201,0.0586201
1457,0,0.0586201,0.0586201
1458,0,0.0586201,0.0586201
1459,0,0.0586201,0.0586201
1460,0,0.0586201,0.0586201
1461,0,0.0586201,0.0586201
1462,0.00174646,0.058578,0.0586201
1463,-0.00168577,0.0586201,0.0586201
1464,0,0.0586201,0.0586201
1465,0,0.0586201,0.0586201
1466,0,0.0586201,0.0586201
1467,0,0.0586201,0.0586201
1468,0,0.0586201,0.0586201
1469,-0.00174646,0.0586623,0.0586201
1470,-6.06877e-05,0.0586623,0.0586201
1471,-6.06877e-05,0.0586623,0.0586201
1472,-6.06877e-05,0.0586623,0.0586201
1473,-6.06877e-05,0.0586623,0.0586201
1474,-6.06877e-05,0.0586623,0.0586201
1475,0.00168577,0.0586201,0.0586201
1476,-0.00174646,0.0586623,0.0586201
1477,0.00168577,0.0586201,0.0586201
1478,0,0.0586201,0.0586201
1479,0,0.0586201,0.0586201
1480,0.00174646,0.058578,0.0586201
1481,-0.00168577,0.0586201,0.0586201
1482,0,0.0586201,0.0586201
1483,0,0.0586201,0.0586201
1484,0,0.0586201,0.0586201
1485,0,0.0586201,0.0586201
1486,-0.00174646,0.0586623,0.0586201
1487,-0.00180699,0.0587044,0.0586201
1488,0.00162493,0.0586623,0.0586201
1489,-6.06877e-05,0.0586623,0.0586201
1490,-6.06877e-05,0.0586623,0.0586201
1491,-6.06877e-05,0.0586623,0.0586201
1492,-6.06877e-05,0.0586623,0.0586201
1493,0.00168577,0.0586201,0.0586201
1494,-0.00174646,0.0586623,0.0586201
1495,0.00168577,0.0586201,0.0586201
1496,0,0.0586201,0.0586201
1497,0,0.0586201,0.0586201
1498,0,0.0586201,0.0586201
1499,0.00174646,0.058578,0.0586201
1500,-0.00168577,0.0586201,0.0586201
1501,0.00174646,0.058578,0.0586201
1502,6.06877e-05,0.058578,0.0586201
1503,6.06877e-05,0.058578,0.0586201
1504,-0.00168577,0.0586201,0.0586201
1505,0,0.0586201,0.0586201
1506,0,0.0586201,0.0586201
1507,0,0.0586201,0.0586201
1508,-0.00174646,0.0586623,0.0586201
1509,-6.06877e-05,0.0586623,0.0586201
1510,-6.06877e-05,0.0586623,0.0586201
1511,-6.06877e-05,0.0586623,0.0586201
1512,-6.06877e-05,0.0586623,0.0586201
1513,-6.06877e-05,0.0586623,0.0586201
1514,-6.06877e-05,0.0586623,0.0586201
1515,-6.06877e-05,0.0586623,0.0586201
1516,-6.06877e-05,0.0586623,0.0586201
1517,0.00168577,0.0586201,0.0586201
1518,0,0.0586201,0.0586201
1519,0,0.0586201,0.0586201
1520,0,0.0586201,0.0586201
1521,0.00174646,0.058578,0.0586201
1522,6.06877e-05,0.058578,0.0586201
1523,-0.00168577,0.0586201,0.0586201
1524,0.00174646,0.058578,0.0586201
1525,-0.00168577,0.0586201,0.0586201
1526,0,0.0586201,0.0586201
1527,-0.00174646,0.0586623,0.0586201
1528,-6.06877e-05,0.0586623,0.0586201
1529,-6.06877e-05,0.0586623,0.0586201
1530,-6.06877e-05,0.0586623,0.0586201
1531,-6.06877e-05,0.0586623,0.0586201
1532,-6.06877e-05,0.0586623,0.0586201
1533,-6.06877e-05,0.0586623,0.0586201
1534,0.00343222,0.058578,0.0586201
1535,-0.00168577,0.0586201,0.0586201
1536,0.00174646,0.058578,0.0586201
1537,6.06877e-05,0.058578,0.0586201
1538,-0.00168577,0.0586201,0.0586201
1539,0.00174646,0.058578,0.0586201
1540,-0.00168577,0.0586201,0.0586201
1541,0,0.0586201,0.0586201
1542,0,0.0586201,0.0586201
1543,-0.00174646,0.0586623,0.0586201
1544,-6.06877e-05,0.0586623,0.0586201
1545,-6.06877e-05,0.0586623,0.0586201
1546,-6.06877e-05,0.0586623,0.0586201
1547,-6.06877e-05,0.0586623,0.0586201
1548,-6.06877e-05,0.0586623,0.0586201
1549,0.00168577,0.0586201,0.0586201
1550,0,0.0586201,0.0586201
1551,0,0.0586201,0.0586201
1552,0.00174646,0.058578,0.0586201
1553,6.06877e-05,0.058578,0.0586201
1554,-0.00168577,0.0586201,0.0586201
1555,0.00174646,0.058578,0.0586201
1556,-0.00168577,0.0586201,0.0586201
1557,0,0.0586201,0.0586201
1558,0,0.0586201,0.0586201
1559,0,0.0586201,0.0586201
1560,0,0.0586201,0.0586201
1561,-0.00174646,0.0586623,0.0586201
1562,-6.06877e-05,0.0586623,0.0586201
1563,-6.06877e-05,0.0586623,0.0586201
1564,-6.06877e-05,0.0586623,0.0586201
1565,-6.06877e-05,0.0586623,0.0586201
1566,0.00168577,0.0586201,0.0586201
1567,0,0.0586201,0.0586201
1568,0,0.0586201,0.0586201
1569,0.00174646,0.058578,0.0586201
1570,-0.00168577,0.0586201,0.0586201
1571,0.00174646,0.058578,0.0586201
1572,-0.00168577,0.0586201,0.0586201
1573,0,0.0586201,0.0586201
1574,0,0.0586201,0.0586201
1575,0,0.0586201,0.0586201
1576,0,0.0586201,0.0586201
1577,0,0.0586201,0.0586201
1578,-0.00174646,0.0586623,0.0586201
1579,0.00168577,0.0586201,0.0586201
1580,0,0.0586201,0.0586201
1581,0,0.0586201,0.0586201
1582,-0.00174646,0.0586623,0.0586201
1583,0.00168577,0.0586201,0.0586201
1584,-0.00174646,0.0586623,0.0586201
1585,0.00168577,0.0586201,0.0586201
1586,0,0.0586201,0.0586201
1587,-0.00174646,0.0586623,0.0586201
1588,0.00168577,0.0586201,0.0586201
1589,0,0.0586201,0.0586201
1590,-0.00174646,0.0586623,0.0586201
1591,-6.06877e-05,0.0586623,0.0586201
1592,0.00168577,0.0586201,0.0586201
1593,0,0.0586201,0.0586201
1594,0,0.0586201,0.0586201
1595,0,0.0586201,0.0586201
1596,0,0.0586201,0.0586201
1597,0,0.0586201,0.0586201
1598,0,0.0586201,0.0586201
1599,0,0.0586201,0.0586201
1600,0,0.0586201,0.0586201
1601,0,0.0586201,0.0586201
1602,0,0.0586201,0.0586201
1603,-0.00174646,0.0586623,0.0586201
1604,-6.06877e-05,0.0586623,0.0586201
1605,-6.06877e-05,0.0586623,0.0586201
1606,0.00168577,0.0586201,0.0586201
1607,0,0.0586201,0.0586201
1608,0,0.0586201,0.0586201
1609,0,0.0586201,0.0586201
1610,0,0.0586201,0.0586201
1611,0,0.0586201,0.0586201
1612,0,0.0586201,0.0586201
1613,0,0.0586201,0.0586201
1614,0,0.0586201,0.0586201
1615,0,0.0586201,0.0586201
1616,0,0.0586201,0.0586201
1617,0,0.0586201,0.0586201
1618,-0.00174646,0.0586623,0.0586201
1619,-6.06877e-05,0.0586623,0.0586201
1620,-6.06877e-05,0.0586623,0.0586201
1621,-6.06877e-05,0.0586623,0.0586201
1622,-6.06877e-05,0.0586623,0.0586201
1623,-6.06877e-05,0.0586623,0.0586201
1624,0.00168577,0.0586201,0.0586201
1625,-0.00174646,0.0586623,0.0586201
1626,0.00168577,0.0586201,0.0586201
1627,-0.00174646,0.0586623,0.0586201
1628,0.00168577,0.0586201,0.0586201
1629,0,0.0586201,0.0586201
1630,0,0.0586201,0.0586201
1631,0,0.0586201,0.0586201
1632,0,0.0586201,0.0586201
1633,0.00174646,0.058578,0.0586201
1634,6.06877e-05,0.058578,0.0586201
1635,6.06877e-05,0.058578,0.0586201
1636,-0.00168577,0.0586201,0.0586201
1637,0,0.0586201,0.0586201
1638,-0.00174646,0.0586623,0.0586201
1639,-6.06877e-05,0.0586623,0.0586201
1640,-6.06877e-05,0.0586623,0.0586201
1641,-6.06877e-05,0.0586623,0.0586201
1642,-6.06877e-05,0.0586623,0.0586201
1643,-0.00180699,0.0587044,0.0586201
1644,0.00162493,0.0586623,0.0586201
1645,-6.06877e-05,0.0586623,0.0586201
1646,0.00168577,0.0586201,0.0586201
1647,0,0.0586201,0.0586201
1648,0,0.0586201,0.0586201
1649,0.00174646,0.058578,0.0586201
1650,6.06877e-05,0.058578,0.0586201
1651,0.00180699,0.0585358,0.0586201
1652,0.00012137,0.0585358,0.0586201
1653,0.00012137,0.0585358,0.0586201
1654,0.00012137,0.0585358,0.0586201
1655,-0.00162493,0.058578,0.0586201
1656,-0.00168577,0.0586201,0.0586201
1657,0,0.0586201,0.0586201
1658,-0.00174646,0.0586623,0.0586201
1659,-6.06877e-05,0.0586623,0.0586201
1660,-0.00180699,0.0587044,0.0586201
1661,-0.00012137,0.0587044,0.0586201
1662,-0.00012137,0.0587044,0.0586201
1663,-0.00012137,0.0587044,0.0586201
1664,-0.00012137,0.0587044,0.0586201
1665,0.00162493,0.0586623,0.0586201
1666,-6.06877e-05,0.0586623,0.0586201
1667,0.00168577,0.0586201,0.0586201
1668,0,0.0586201,0.0586201
1669,0,0.0586201,0.0586201
1670,0.00174646,0.058578,0.0586201
1671,6.06877e-05,0.058578,0.0586201
1672,-0.00168577,0.0586201,0.0586201
1673,0,0.0586201,0.0586201
1674,0,0.0586201,0.0586201
1675,0,0.0586201,0.0586201
1676,0,0.0586201,0.0586201
1677,0,0.0586201,0.0586201
1678,-0.00174646,0.0586623,0.0586201
1679,-6.06877e-05,0.0586623,0.0586201
1680,-6.06877e-05,0.0586623,0.0586201
1681,-6.06877e-05,0.0586623,0.0586201
1682,0.00168577,0.0586201,0.0586201
1683,0,0.0586201,0.0586201
1684,0,0.0586201,0.0586201
1685,0,0.0586201,0.0586201
1686,0,0.0586201,0.0586201
1687,0,0.0586201,0.0586201
1688,0,0.0586201,0.0586201
1689,0.00174646,0.058578,0.0586201
1690,-0.00168577,0.0586201,0.0586201
1691,0,0.0586201,0.0586201
1692,0,0.0586201,0.0586201
1693,0,0.0586201,0.0586201
1694,-0.00174646,0.0586623,0.0586201
1695,-6.06877e-05,0.0586623,0.0586201
1696,-6.06877e-05,0.0586623,0.0586201
1697,-6.06877e-05,0.0586623,0.0586201
1698,-6.06877e-05,0.0586623,0.0586201
1699,-6.06877e-05,0.0586623,0.0586201
1700,-6.06877e-05,0.0586623,0.0586201
1701,-6.06877e-05,0.0586623,0.0586201
1702,-6.06877e-05,0.0586623,0.0586201
1703,-6.06877e-05,0.0586623,0.0586201
1704,0.00168577,0.0586201,0.0586201
1705,-0.00174646,0.0586623,0.0586201
1706,0.00168577,0.0586201,0.0586201
1707,0,0.0586201,0.0586201
1708,0,0.0586201,0.0586201
1709,0,0.0586201,0.0586201
1710,0,0.0586201,0.0586201
1711,0,0.0586201,0.0586201
1712,0.00174646,0.058578,0.0586201
1713,-0.00168577,0.0586201,0.0586201
1714,-0.00174646,0.0586623,0.0586201
1715,-6.06877e-05,0.0586623,0.0586201
1716,-6.06877e-05,0.0586623,0.0586201
1717,-6.06877e-05,0.0586623,0.0586201
1718,-6.06877e-05,0.0586623,0.0586201
1719,-6.06877e-05,0.0586623,0.0586201
1720,-6.06877e-05,0.0586623,0.0586201
1721,-6.06877e-05,0.0586623,0.0586201
1722,0.00168577,0.0586201,0.0586201
1723,0,0.0586201,0.0586201
1724,0,0.0586201,0.0586201
1725,0,0.0586201,0.0586201
1726,0.00174646,0.058578,0.0586201
1727,6.06877e-05,0.058578,0.0586201
1728,-0.00168577,0.0586201,0.0586201
1729,0,0.0586201,0.0586201
1730,-0.00174646,0.0586623,0.0586201
1731,-6.06877e-05,0.0586623,0.0586201
1732,-6.06877e-05,0.0586623,0.0586201
1733,-6.06877e-05,0.0586623,0.0586201
1734,-6.06877e-05,0.0586623,0.0586201
1735,-6.06877e-05,0.0586623,0.0586201
1736,0.00168577,0.0586201,0.0586201
1737,0,0.0586201,0.0586201
1738,0,0.0586201,0.0586201
1739,0,0.0586201,0.0586201
1740,0.00174646,0.058578,0.0586201
1741,6.06877e-05,0.058578,0.0586201
1742,6.06877e-05,0.058578,0.0586201
1743,6.06877e-05,0.058578,0.0586201
1744,-0.00168577,0.0586201,0.0586201
1745,0,0.0586201,0.0586201
1746,0,0.0586201,0.0586201
1747,0,0.0586201,0.0586201
1748,-0.00174646,0.0586623,0.0586201
1749,0.00168577,0.0586201,0.0586201
1750,-0.00174646,0.0586623,0.0586201
1751,-6.06877e-05,0.0586623,0.0586201
1752,-6.06877e-05,0.0586623,0.0586201
1753,-6.06877e-05,0.0586623,0.0586201
1754,-6.06877e-05,0.0586623,0.0586201
1755,0.00168577,0.0586201,0.0586201
1756,0,0.0586201,0.0586201
1757,0,0.0586201,0.0586201
1758,0,0.0586201,0.0586201
1759,0,0.0586201,0.0586201
1760,0,0.0586201,0.0586201
1761,0,0.0586201,0.0586201
1762,0,0.0586201,0.0586201
1763,-0.00174646,0.0586623,0.0586201
1764,0.00168577,0.0586201,0.0586201
1765,0,0.0586201,0.0586201
1766,0,0.0586201,0.0586201
1767,0,0.0586201,0.0586201
1768,0,0.0586201,0.0586201
1769,0,0.0586201,0.0586201
1770,0,0.0586201,0.0586201
1771,0,0.0586201,0.0586201
1772,0,0.0586201,0.0586201
1773,-0.00174646,0.0586623,0.0586201
1774,0.00168577,0.0586201,0.0586201
1775,0,0.0586201,0.0586201
1776,-0.00174646,0.0586623,0.0586201
1777,-6.06877e-05,0.0586623,0.0586201
1778,-6.06877e-05,0.0586623,0.0586201
1779,-6.06877e-05,0.0586623,0.0586201
1780,-6.06877e-05,0.0586623,0.0586201
1781,0.00168577,0.0586201,0.0586201
1782,0,0.0586201,0.0586201
1783,0,0.0586201,0.0586201
1784,0,0.0586201,0.0586201
1785,0,0.0586201,0.0586201
1786,0,0.0586201,0.0586201
1787,0.00174646,0.058578,0.0586201
1788,-0.00168577,0.0586201,0.0586201
1789,0,0.0586201,0.0586201
1790,0,0.0586201,0.0586201
1791,0,0.0586201,0.0586201
1792,-0.00174646,0.0586623,0.0586201
1793,-6.06877e-05,0.0586623,0.0586201
1794,-6.06877e-05,0.0586623,0.0586201
1795,-6.06877e-05,0.0586623,0.0586201
1796,-6.06877e-05,0.0586623,0.0586201
1797,0.00168577,0.0586201,0.0586201
1798,0,0.0586201,0.0586201
1799,0,0.0586201,0.0586201
1800,0.00174646,0.058578,0.0586201
1801,6.06877e-05,0.058578,0.0586201
1802,6.06877e-05,0.058578,0.0586201
1803,6.06877e-05,0.058578,0.0586201
1804,6.06877e-05,0.058578,0.0586201
1805,-0.00168577,0.0586201,0.0586201
1806,0,0.0586201,0.0586201
1807,0,0.0586201,0.0586201
1808,0,0.0586201,0.0586201
1809,0,0.0586201,0.0586201
1810,-0.00174646,0.0586623,0.0586201
1811,-6.06877e-05,0.0586623,0.0586201
1812,-6.06877e-05,0.0586623,0.0586201
1813,-0.00180699,0.0587044,0.0586201
1814,0.00162493,0.0586623,0.0586201
1815,-6.06877e-05,0.0586623,0.0586201
1816,-6.06877e-05,0.0586623,0.0586201
1817,-6.06877e-05,0.0586623,0.0586201
1818,0.00168577,0.0586201,0.0586201
1819,0,0.0586201,0.0586201
1820,0,0.0586201,0.0586201
1821,0,0.0586201,0.0586201
1822,0,0.0586201,0.0586201
1823,0,0.0586201,0.0586201
1824,0,0.0586201,0.0586201
1825,0,0.0586201,0.0586201
1826,0,0.0586201,0.0586201
1827,0,0.0586201,0.0586201
1828,-0.00174646,0.0586623,0.0586201
1829,0.00168577,0.0586201,0.0586201
1830,0,0.0586201,0.0586201
1831,0,0.0586201,0.0586201
1832,-0.00174646,0.0586623,0.0586201
1833,0.00168577,0.0586201,0.0586201
1834,0,0.0586201,0.0586201
1835,0,0.0586201,0.0586201
1836,0,0.0586201,0.0586201
1837,0,0.0586201,0.0586201
1838,0,0.0586201,0.0586201
1839,0,0.0586201,0.0586201
1840,0,0.0586201,0.0586201
1841,0,0.0586201,0.0586201
1842,0,0.0586201,0.0586201
1843,0,0.0586201,0.0586201
1844,0,0.0586201,0.0586201
1845,0,0.0586201,0.0586201
1846,0,0.0586201,0.0586201
1847,0,0.0586201,0.0586201
1848,-0.00174646,0.0586623,0.0586201
1849,-0.00180699,0.0587044,0.0586201
1850,0.00162493,0.0586623,0.0586201
1851,-6.06877e-05,0.0586623,0.0586201
1852,-6.06877e-05,0.0586623,0.0586201
1853,0.00168577,0.0586201,0.0586201
1854,0,0.0586201,0.0586201
1855,0,0.0586201,0.0586201
1856,0,0.0586201,0.0586201
1857,0.00174646,0.058578,0.0586201
1858,-0.00168577,0.0586201,0.0586201
1859,0,0.0586201,0.0586201
1860,0,0.0586201,0.0586201
1861,0,0.0586201,0.0586201
1862,0,0.0586201,0.0586201
1863,-0.00174646,0.0586623,0.0586201
1864,0.00168577,0.0586201,0.0586201
1865,-0.00174646,0.0586623,0.0586201
1866,-0.00180699,0.0587044,0.0586201
1867,0.00162493,0.0586623,0.0586201
1868,-6.06877e-05,0.0586623,0.0586201
1869,-6.06877e-05,0.0586623,0.0586201
1870,-6.06877e-05,0.0586623,0.0586201
1871,0.00168577,0.0586201,0.0586201
1872,0,0.0586201,0.0586201
1873,0,0.0586201,0.0586201
1874,0.00174646,0.058578,0.0586201
1875,-0.00168577,0.0586201,0.0586201
1876,0.00174646,0.058578,0.0586201
1877,6.06877e-05,0.058578,0.0586201
1878,6.06877e-05,0.058578,0.0586201
1879,-0.00168577,0.0586201,0.0586201
1880,0,0.0586201,0.0586201
1881,-0.00174646,0.0586623,0.0586201
1882,-6.06877e-05,0.0586623,0.0586201
1883,-6.06877e-05,0.0586623,0.0586201
1884,-6.06877e-05,0.0586623,0.0586201
1885,-0.00180699,0.0587044,0.0586201
1886,0.00162493,0.0586623,0.0586201
1887,-6.06877e-05,0.0586623,0.0586201
1888,-6.06877e-05,0.0586623,0.0586201
1889,0.00343222,0.058578,0.0586201
1890,6.06877e-05,0.058578,0.0586201
1891,0.00180699,0.0585358,0.0586201
1892,-0.00162493,0.058578,0.0586201
1893,6.06877e-05,0.058578,0.0586201
1894,6.06877e-05,0.058578,0.0586201
1895,-0.00168577,0.0586201,0.0586201
1896,0,0.0586201,0.0586201
1897,0,0.0586201,0.0586201
1898,0,0.0586201,0.0586201
1899,-0.00174646,0.0586623,0.0586201
1900,-6.06877e-05,0.0586623,0.0586201
1901,-0.00180699,0.0587044,0.0586201
1902,0.00162493,0.0586623,0.0586201
1903,-6.06877e-05,0.0586623,0.0586201
1904,-6.06877e-05,0.0586623,0.0586201
1905,0.00168577,0.0586201,0.0586201
1906,0,0.0586201,0.0586201
1907,0.00174646,0.058578,0.0586201
1908,6.06877e-05,0.058578,0.0586201
1909,6.06877e-05,0.058578,0.0586201
1910,6.06877e-05,0.058578,0.0586201
1911,6.06877e-05,0.058578,0.0586201
1912,6.06877e-05,0.058578,0.0586201
1913,6.06877e-05,0.058578,0.0586201
1914,-0.00168577,0.0586201,0.0586201
1915,-0.00174646,0.0586623,0.0586201
1916,-6.06877e-05,0.0586623,0.0586201
1917,-0.00180699,0.0587044,0.0586201
1918,0.00162493,0.0586623,0.0586201
1919,-0.00180699,0.0587044,0.0586201
1920,-0.00012137,0.0587044,0.0586201
1921,-0.00012137,0.0587044,0.0586201
1922,0.00162493,0.0586623,0.0586201
1923,-6.06877e-05,0.0586623,0.0586201
1924,0.00168577,0.0586201,0.0586201
1925,0,0.0586201,0.0586201
1926,0.00174646,0.058578,0.0586201
1927,-0.00168577,0.0586201,0.0586201
1928,0.00174646,0.058578,0.0586201
1929,-0.00168577,0.0586201,0.0586201
1930,0.00174646,0.058578,0.0586201
1931,-0.00168577,0.0586201,0.0586201
1932,0,0.0586201,0.0586201
1933,0,0.0586201,0.0586201
1934,-0.00174646,0.0586623,0.0586201
1935,-6.06877e-05,0.0586623,0.0586201
1936,0.00168577,0.0586201,0.0586201
1937,-0.00349276,0.0587044,0.0586201
1938,0.00162493,0.0586623,0.0586201
1939,-0.00180699,0.0587044,0.0586201
1940,0.00162493,0.0586623,0.0586201
1941,-6.06877e-05,0.0586623,0.0586201
1942,0.00168577,0.0586201,0.0586201
1943,0,0.0586201,0.0586201
1944,0,0.0586201,0.0586201
1945,0,0.0586201,0.0586201
1946,0,0.0586201,0.0586201
1947,0,0.0586201,0.0586201
1948,0,0.0586201,0.0586201
1949,0,0.0586201,0.0586201
1950,0,0.0586201,0.0586201
1951,-0.00174646,0.0586623,0.0586201
1952,-6.06877e-05,0.0586623,0.0586201
1953,-6.06877e-05,0.0586623,0.0586201
1954,-6.06877e-05,0.0586623,0.0586201
1955,-6.06877e-05,0.0586623,0.0586201
1956,-6.06877e-05,0.0586623,0.0586201
1957,-6.06877e-05,0.0586623,0.0586201
1958,-6.06877e-05,0.0586623,0.0586201
1959,-6.06877e-05,0.0586623,0.0586201
1960,0.00168577,0.0586201,0.0586201
1961,0,0.0586201,0.0586201
1962,0.00174646,0.058578,0.0586201
1963,6.06877e-05,0.058578,0.0586201
1964,6.06877e-05,0.058578,0.0586201
1965,6.06877e-05,0.058578,0.0586201
1966,6.06877e-05,0.058578,0.0586201
1967,-0.00168577,0.0586201,0.0586201
1968,0,0.0586201,0.0586201
1969,0,0.0586201,0.0586201
1970,-0.00174646,0.0586623,0.0586201
1971,-6.06877e-05,0.0586623,0.0586201
1972,-6.06877e-05,0.0586623,0.0586201
1973,-6.06877e-05,0.0586623,0.0586201
1974,-6.06877e-05,0.0586623,0.0586201
1975,-6.06877e-05,0.0586623,0.0586201
1976,0.00168577,0.0586201,0.0586201
1977,-0.00174646,0.0586623,0.0586201
1978,0.00168577,0.0586201,0.0586201
1979,0,0.0586201,0.0586201
1980,0,0.0586201,0.0586201
1981,0,0.0586201,0.0586201
1982,0,0.0586201,0.0586201
1983,0,0.0586201,0.0586201
1984,0,0.0586201,0.0586201
1985,0,0.0586201,0.0586201
1986,0,0.0586201,0.0586201
1987,0,0.0586201,0.0586201
1988,-0.00174646,0.0586623,0.0586201
1989,0.00168577,0.0586201,0.0586201
1990,-0.00174646,0.0586623,0.0586201
1991,0.00168577,0.0586201,0.0586201
1992,-0.00174646,0.0586623,0.0586201
1993,0.00168577,0.0586201,0.0586201
1994,0,0.0586201,0.0586201
1995,0,0.0586201,0.0586201
1996,0,0.0586201,0.0586201
1997,0,0.0586201,0.0586201
1998,0,0.0586201,0.0586201
1999,0.00174646,0.058578,0.0586201
0,33.5,0.0586201,3.20006
1,4.52368,0.0586201,3.20006
2,4.50098,0.059168,3.20006
3,4.35872,0.0631294,3.20006
4,4.26396,0.06924,3.20006
5,4.13816,0.0781742,3.20006
6,4.0694,0.088457,3.20006
7,3.96029,0.101015,3.20006
8,3.98062,0.112647,3.20006
9,3.82243,0.127692,3.20006
10,3.96142,0.138859,3.20006
11,3.7218,0.155421,3.20006
12,3.81147,0.169244,3.20006
13,3.65884,0.18627,3.20006
14,3.8107,0.199039,3.20006
15,3.52687,0.218213,3.20006
16,3.70534,0.232415,3.20006
17,3.69012,0.246491,3.20006
18,3.6681,0.260609,3.20006
19,3.4679,0.279067,3.20006
20,3.62818,0.293016,3.20006
21,3.60634,0.307008,3.20006
22,3.50936,0.322853,3.20006
23,3.51098,0.338109,3.20006
24,3.50125,0.353069,3.20006
25,3.45525,0.36862,3.20006
26,3.50796,0.382358,3.20006
27,3.47944,0.396307,3.20006
28,3.38077,0.412153,3.20006
29,3.34922,0.428209,3.20006
30,3.34881,0.443718,3.20006
31,3.35091,0.458636,3.20006
32,3.27355,0.474903,3.20006
33,3.28156,0.490411,3.20006
34,3.25923,0.50592,3.20006
35,3.23864,0.521386,3.20006
36,3.19542,0.537358,3.20006
37,3.20036,0.552656,3.20006
38,3.15388,0.568543,3.20006
39,3.21133,0.582493,3.20006
40,3.16331,0.597116,3.20006
41,3.11081,0.612498,3.20006
42,3.06595,0.628428,3.20006
43,3.06223,0.643894,3.20006
44,3.01551,0.65995,3.20006
45,3.09543,0.67352,3.20006
46,2.97111,0.689619,3.20006
47,2.94792,0.705717,3.20006
48,3.00332,0.719919,3.20006
49,2.84841,0.737366,3.20006
50,2.94901,0.751779,3.20006
51,2.87239,0.76754,3.20006
52,2.81475,0.784144,3.20006
53,2.87293,0.798768,3.20006
54,2.71216,0.816762,3.20006
55,2.74213,0.833409,3.20006
56,2.80024,0.848074,3.20006
57,2.70402,0.864552,3.20006
58,2.71174,0.880271,3.20006
59,2.71355,0.8954,3.20006
60,2.72319,0.909771,3.20006
61,2.48421,0.929409,3.20006
62,2.73011,0.942431,3.20006
63,2.65198,0.956886,3.20006
64,2.54908,0.973321,3.20006
65,2.60575,0.987818,3.20006
66,2.53074,1.00362,3.20006
67,2.48003,1.0201,3.20006
68,2.51569,1.03514,3.20006
69,2.46608,1.05086,3.20006
70,2.41725,1.06721,3.20006
71,2.4461,1.0823,3.20006
72,2.39293,1.09815,3.20006
73,2.31424,1.11534,3.20006
74,2.31043,1.13203,3.20006
75,2.36847,1.14674,3.20006
76,2.26172,1.16351,3.20006
77,2.24107,1.1802,3.20006
78,2.24323,1.19625,3.20006
79,2.27949,1.21088,3.20006
80,2.12221,1.22879,3.20006
81,2.26233,1.2427,3.20006
82,2.21436,1.25728,3.20006
83,2.13398,1.27329,3.20006
84,2.08473,1.28994,3.20006
85,2.08346,1.30604,3.20006
86,2.05679,1.32222,3.20006
87,1.99507,1.33933,3.20006
88,2.05949,1.35429,3.20006
89,1.96635,1.37098,3.20006
90,1.98772,1.38657,3.20006
91,2.01766,1.4009,3.20006
92,1.99877,1.41518,3.20006
93,1.97121,1.42964,3.20006
94,1.96437,1.44376,3.20006
95,1.85847,1.45994,3.20006
96,1.88755,1.47486,3.20006
97,1.79098,1.49159,3.20006
98,1.78086,1.50798,3.20006
99,1.77821,1.52387,3.20006
100,1.72913,1.54039,3.20006
101,1.7071,1.55687,3.20006
102,1.66066,1.57389,3.20006
103,1.72346,1.58881,3.20006
104,1.61117,1.60592,3.20006
105,1.67036,1.62101,3.20006
106,1.591,1.63749,3.20006
107,1.56378,1.65405,3.20006
108,1.54517,1.67048,3.20006
109,1.49007,1.68768,3.20006
110,1.52469,1.70344,3.20006
111,1.4723,1.71992,3.20006
112,1.42412,1.73698,3.20006
113,1.42574,1.75342,3.20006
114,1.40033,1.7699,3.20006
115,1.39931,1.78583,3.20006
116,1.2873,1.80391,3.20006
117,1.3416,1.82005,3.20006
118,1.28518,1.83699,3.20006
119,1.23109,1.85465,3.20006
120,1.14978,1.87365,3.20006
121,1.33023,1.88764,3.20006
122,1.10576,1.90657,3.20006
123,1.16583,1.92338,3.20006
124,1.1975,1.93885,3.20006
125,1.11236,1.95583,3.20006
126,1.05647,1.97357,3.20006
127,1.14093,1.98866,3.20006
128,1.00047,2.00661,3.20006
129,1.00779,2.02376,3.20006
130,1.01279,2.0402,3.20006
131,0.903538,2.0587,3.20006
132,0.969454,2.07497,3.20006
133,0.91634,2.09195,3.20006
134,0.918085,2.1083,3.20006
135,0.826436,2.1263,3.20006
136,0.823219,2.14374,3.20006
137,0.764918,2.16199,3.20006
138,0.761346,2.17969,3.20006
139,0.702661,2.19819,3.20006
140,0.770335,2.21442,3.20006
141,0.691089,2.23199,3.20006
142,0.639592,2.25019,3.20006
143,0.615115,2.26836,3.20006
144,0.669294,2.28458,3.20006
145,0.577827,2.30245,3.20006
146,0.611466,2.31889,3.20006
147,0.491755,2.33764,3.20006
148,0.499666,2.35555,3.20006
149,0.440697,2.37426,3.20006
150,0.502832,2.39082,3.20006
151,0.417845,2.40886,3.20006
152,0.356946,2.42774,3.20006
153,0.326271,2.44671,3.20006
154,0.297224,2.46571,3.20006
155,0.360653,2.48253,3.20006
156,0.229913,2.50191,3.20006
157,0.196771,2.52142,3.20006
158,0.264708,2.53862,3.20006
159,0.0758011,2.55977,3.20006
160,0.237426,2.57629,3.20006
161,0.0791789,2.59606,3.20006
162,0.176442,2.61279,3.20006
163,-0.0903841,2.63538,3.20006
164,0.0709356,2.65329,3.20006
165,-0.0631311,2.67381,3.20006
166,0.00685693,2.69193,3.20006
167,-0.124026,2.71258,3.20006
168,-0.1555,2.73327,3.20006
169,-0.0490802,2.75068,3.20006
170,-0.210369,2.77137,3.20006
171,-0.208718,2.7913,3.20006
172,-0.281082,2.81229,3.20006
173,-0.250185,2.8318,3.20006
174,-0.316705,2.85224,3.20006
175,-0.375827,2.8734,3.20006
176,-0.355636,2.89333,3.20006
177,-0.295281,2.91111,3.20006
178,-0.399486,2.9308,3.20006
179,-0.403363,2.94989,3.20006
180,-0.418632,2.96868,3.20006
181,-0.342658,2.98499,3.20006
182,-0.511094,3.0048,3.20006
183,-0.345779,3.01993,3.20006
184,-0.444402,3.03691,3.20006
185,-0.388514,3.05195,3.20006
186,-0.476552,3.0686,3.20006
187,-0.477809,3.0847,3.20006
188,-0.401459,3.0984,3.20006
189,-0.450861,3.11281,3.20006
190,-0.473364,3.12726,3.20006
191,-0.47846,3.14134,3.20006
192,-0.460315,3.15449,3.20006
193,-0.439077,3.16667,3.20006
194,-0.465339,3.17906,3.20006
195,-0.484948,3.19149,3.20006
196,-0.427733,3.20211,3.20006
197,-0.458754,3.21311,3.20006
198,-0.469356,3.22398,3.20006
199,-0.46056,3.23426,3.20006
200,-0.433456,3.24353,3.20006
201,-0.394413,3.25154,3.20006
202,-0.418165,3.25984,3.20006
203,-0.41441,3.26777,3.20006
204,-0.443277,3.27611,3.20006
205,-0.360988,3.28218,3.20006
206,-0.399416,3.28896,3.20006
207,-0.370763,3.29482,3.20006
208,-0.393178,3.30102,3.20006
209,-0.35668,3.30612,3.20006
210,-0.360545,3.31113,3.20006
211,-0.336319,3.31539,3.20006
212,-0.365152,3.32019,3.20006
213,-0.321435,3.32377,3.20006
214,-0.326593,3.32736,3.20006
215,-0.321269,3.33068,3.20006
216,-0.313831,3.33372,3.20006
217,-0.288521,3.33604,3.20006
218,-0.291849,3.33835,3.20006
219,-0.277738,3.34025,3.20006
220,-0.271715,3.34194,3.20006
221,-0.253206,3.34312,3.20006
222,-0.247921,3.34413,3.20006
223,-0.240633,3.34493,3.20006
224,-0.226067,3.34535,3.20006
225,-0.219698,3.3456,3.20006
226,-0.20958,3.3456,3.20006
227,-0.199097,3.34535,3.20006
228,-0.191758,3.34493,3.20006
229,-0.182407,3.3443,3.20006
230,-0.174521,3.3435,3.20006
231,-0.17161,3.34265,3.20006
232,-0.158184,3.34152,3.20006
233,-0.151309,3.34025,3.20006
234,-0.142494,3.33882,3.20006
235,-0.140431,3.33739,3.20006
236,-0.136618,3.33591,3.20006
237,-0.122282,3.33414,3.20006
238,-0.119714,3.33237,3.20006
239,-0.106702,3.33035,3.20006
240,-0.109026,3.32845,3.20006
241,-0.101049,3.32643,3.20006
242,-0.105141,3.32457,3.20006
243,-0.0902196,3.32242,3.20006
244,-0.0749223,3.31998,3.20006
245,-0.0783782,3.3177,3.20006
246,-0.0785889,3.31551,3.20006
247,-0.0684577,3.31315,3.20006
248,-0.0563256,3.31058,3.20006
249,-0.0700819,3.30843,3.20006
250,-0.04778,3.30582,3.20006
251,-0.0422688,3.30317,3.20006
252,-0.0524258,3.30085,3.20006
253,-0.0403445,3.29832,3.20006
254,-0.0314668,3.29566,3.20006
255,-0.0328899,3.29314,3.20006
256,-0.0240026,3.29048,3.20006
257,-0.0341597,3.28816,3.20006
258,-0.0203296,3.28559,3.20006
259,-0.011401,3.2829,3.20006
260,-0.0144927,3.28037,3.20006
261,-0.00736372,3.27775,3.20006
262,-0.0158229,3.27544,3.20006
263,-0.000263457,3.27282,3.20006
264,-0.00173741,3.27034,3.20006
265,0.00532088,3.26777,3.20006
266,0.00205681,3.26536,3.20006
267,-0.00322773,3.26317,3.20006
268,0.0086716,3.26077,3.20006
269,0.00163829,3.25862,3.20006
270,0.013467,3.25626,3.20006
271,0.0186238,3.25386,3.20006
272,0.0063541,3.25184,3.20006
273,0.0197496,3.24956,3.20006
274,0.0177902,3.24741,3.20006
275,0.0243729,3.24518,3.20006
276,0.0136187,3.24328,3.20006
277,0.0215958,3.24126,3.20006
278,0.0297355,3.23911,3.20006
279,0.0171209,3.23734,3.20006
280,0.0266549,3.2354,3.20006
281,0.0294366,3.23346,3.20006
282,0.02875,3.23161,3.20006
283,0.026184,3.22988,3.20006
284,0.0304014,3.22811,3.20006
285,0.0242258,3.22655,3.20006
286,0.0282199,3.22495,3.20006
287,0.0340136,3.22326,3.20006
288,0.0277168,3.22179,3.20006
289,0.0228459,3.22048,3.20006
290,0.0282344,3.21909,3.20006
291,0.0302274,3.2177,3.20006
292,0.0304813,3.21635,3.20006
293,0.0271768,3.21513,3.20006
294,0.0237098,3.21403,3.20006
295,0.0357605,3.21269,3.20006
296,0.0202443,3.21176,3.20006
297,0.0215795,3.21083,3.20006
298,0.0264023,3.20982,3.20006
299,0.0278587,3.20881,3.20006
300,0.0188422,3.20805,3.20006
301,0.0216735,3.20725,3.20006
302,0.0193388,3.20653,3.20006
303,0.0221192,3.20577,3.20006
304,0.0197141,3.2051,3.20006
305,0.0189363,3.20447,3.20006
306,0.0163588,3.20392,3.20006
307,0.0206453,3.20329,3.20006
308,0.0128218,3.20287,3.20006
309,0.0116701,3.20249,3.20006
310,0.0104771,3.20215,3.20006
311,0.0127113,3.20177,3.20006
312,0.00626247,3.20156,3.20006
313,0.00832428,3.20131,3.20006
314,0.005191,3.20114,3.20006
315,0.00368496,3.20101,3.20006
316,0.00212803,3.20093,3.20006
317,0.000490913,3.20089,3.20006
318,-0.00118755,3.20089,3.20006
319,-0.00118755,3.20089,3.20006
320,-0.00292644,3.20093,3.20006
321,-0.00299675,3.20097,3.20006
322,-0.00479641,3.20105,3.20006
323,-0.00317871,3.2011,3.20006
324,-0.00672714,3.20122,3.20006
325,-0.00517021,3.20131,3.20006
326,-0.00528187,3.20139,3.20006
327,-0.00715183,3.20152,3.20006
328,-0.00734367,3.20164,3.20006
329,-0.00577721,3.20173,3.20006
330,-0.00588886,3.20181,3.20006
331,-0.00601006,3.2019,3.20006
332,-0.00264359,3.2019,3.20006
333,-0.00264359,3.2019,3.20006
334,-0.00264359,3.2019,3.20006
335,-0.000904694,3.20186,3.20006
336,-0.000834389,3.20181,3.20006
337,-0.000773621,3.20177,3.20006
338,-0.00246162,3.20177,3.20006
339,0.00102604,3.20169,3.20006
340,-0.00059166,3.20164,3.20006
341,-0.00227966,3.20164,3.20006
342,-0.000540772,3.2016,3.20006
343,-0.00221924,3.2016,3.20006
344,-0.00221924,3.2016,3.20006
345,-0.00221924,3.2016,3.20006
346,-0.00221924,3.2016,3.20006
347,-0.00221924,3.2016,3.20006
348,-0.000470467,3.20156,3.20006
349,-0.00564613,3.20164,3.20006
350,-0.000540772,3.2016,3.20006
351,-0.00395813,3.20164,3.20006
352,-0.00227966,3.20164,3.20006
353,-0.00227966,3.20164,3.20006
354,-0.00227966,3.20164,3.20006
355,-0.00402843,3.20169,3.20006
356,-0.00234043,3.20169,3.20006
357,-0.0040892,3.20173,3.20006
358,-0.000652428,3.20169,3.20006
359,-0.00234043,3.20169,3.20006
360,-0.00234043,3.20169,3.20006
361,-0.00059166,3.20164,3.20006
362,-0.00227966,3.20164,3.20006
363,-0.00227966,3.20164,3.20006
364,-0.000540772,3.2016,3.20006
365,-0.00221924,3.2016,3.20006
366,-0.00221924,3.2016,3.20006
367,-0.00221924,3.2016,3.20006
368,-0.00221924,3.2016,3.20006
369,-0.00221924,3.2016,3.20006
370,-0.00221924,3.2016,3.20006
371,-0.00221924,3.2016,3.20006
372,-0.00395813,3.20164,3.20006
373,-0.00227966,3.20164,3.20006
374,-0.00227966,3.20164,3.20006
375,-0.00227966,3.20164,3.20006
376,-0.00227966,3.20164,3.20006
377,-0.00227966,3.20164,3.20006
378,-0.00227966,3.20164,3.20006
379,-0.00402843,3.20169,3.20006
380,-0.00059166,3.20164,3.20006
381,-0.00227966,3.20164,3.20006
382,-0.00227966,3.20164,3.20006
383,-0.00227966,3.20164,3.20006
384,-0.00227966,3.20164,3.20006
385,-0.00227966,3.20164,3.20006
386,-0.00227966,3.20164,3.20006
387,-0.00227966,3.20164,3.20006
388,-0.00227966,3.20164,3.20006
389,-0.00402843,3.20169,3.20006
390,-0.00059166,3.20164,3.20006
391,-0.00227966,3.20164,3.20006
392,-0.00227966,3.20164,3.20006
393,-0.00227966,3.20164,3.20006
394,-0.00227966,3.20164,3.20006
395,-0.000540772,3.2016,3.20006
396,-0.00221924,3.2016,3.20006
397,-0.00221924,3.2016,3.20006
398,-0.00221924,3.2016,3.20006
399,-0.00221924,3.2016,3.20006
400,-0.00395813,3.20164,3.20006
401,-0.00227966,3.20164,3.20006
402,-0.00227966,3.20164,3.20006
403,-0.00227966,3.20164,3.20006
404,-0.00402843,3.20169,3.20006
405,-0.00234043,3.20169,3.20006
406,-0.00234043,3.20169,3.20006
407,-0.00234043,3.20169,3.20006
408,-0.00234043,3.20169,3.20006
409,-0.00234043,3.20169,3.20006
410,-0.00059166,3.20164,3.20006
411,-0.00227966,3.20164,3.20006
412,-0.00227966,3.20164,3.20006
413,-0.00227966,3.20164,3.20006
414,-0.000540772,3.2016,3.20006
415,-0.00221924,3.2016,3.20006
416,-0.00221924,3.2016,3.20006
417,-0.00221924,3.2016,3.20006
418,-0.00221924,3.2016,3.20006
419,-0.00395813,3.20164,3.20006
420,-0.00402843,3.20169,3.20006
421,-0.00234043,3.20169,3.20006
422,-0.00234043,3.20169,3.20006
423,-0.00234043,3.20169,3.20006
424,-0.00234043,3.20169,3.20006
425,-0.00234043,3.20169,3.20006
426,-0.00234043,3.20169,3.20006
427,-0.00234043,3.20169,3.20006
428,-0.00234043,3.20169,3.20006
429,-0.00234043,3.20169,3.20006
430,-0.00059166,3.20164,3.20006
431,-0.00227966,3.20164,3.20006
432,-0.00227966,3.20164,3.20006
433,-0.000540772,3.2016,3.20006
434,-0.00221924,3.2016,3.20006
435,-0.00221924,3.2016,3.20006
436,-0.00221924,3.2016,3.20006
437,-0.00395813,3.20164,3.20006
438,-0.000540772,3.2016,3.20006
439,-0.00221924,3.2016,3.20006
440,-0.00395813,3.20164,3.20006
441,-0.00227966,3.20164,3.20006
442,-0.00227966,3.20164,3.20006
443,-0.00227966,3.20164,3.20006
444,-0.00402843,3.20169,3.20006
445,-0.00234043,3.20169,3.20006
446,-0.0040892,3.20173,3.20006
447,-0.000652428,3.20169,3.20006
448,-0.00234043,3.20169,3.20006
449,-0.00059166,3.20164,3.20006
450,-0.00227966,3.20164,3.20006
451,-0.00227966,3.20164,3.20006
452,-0.00227966,3.20164,3.20006
453,-0.000540772,3.2016,3.20006
454,-0.00395813,3.20164,3.20006
455,-0.00227966,3.20164,3.20006
456,-0.00227966,3.20164,3.20006
457,-0.00227966,3.20164,3.20006
458,-0.00402843,3.20169,3.20006
459,-0.00059166,3.20164,3.20006
460,-0.00402843,3.20169,3.20006
461,-0.00059166,3.20164,3.20006
462,-0.00227966,3.20164,3.20006
463,-0.00227966,3.20164,3.20006
464,-0.00227966,3.20164,3.20006
465,-0.000540772,3.2016,3.20006
466,-0.00395813,3.20164,3.20006
467,-0.000540772,3.2016,3.20006
468,-0.00221924,3.2016,3.20006
469,-0.00395813,3.20164,3.20006
470,-0.00227966,3.20164,3.20006
471,-0.00227966,3.20164,3.20006
472,-0.00227966,3.20164,3.20006
473,-0.00227966,3.20164,3.20006
474,-0.00227966,3.20164,3.20006
475,-0.00227966,3.20164,3.20006
476,-0.00227966,3.20164,3.20006
477,-0.00227966,3.20164,3.20006
478,-0.00227966,3.20164,3.20006
479,-0.00227966,3.20164,3.20006
480,-0.000540772,3.2016,3.20006
481,-0.00395813,3.20164,3.20006
482,-0.00227966,3.20164,3.20006
483,-0.00227966,3.20164,3.20006
484,-0.00227966,3.20164,3.20006
485,-0.00402843,3.20169,3.20006
486,-0.00234043,3.20169,3.20006
487,-0.00234043,3.20169,3.20006
488,-0.00234043,3.20169,3.20006
489,-0.00234043,3.20169,3.20006
490,-0.00059166,3.20164,3.20006
491,-0.00227966,3.20164,3.20006
492,-0.00227966,3.20164,3.20006
493,-0.00227966,3.20164,3.20006
494,-0.00227966,3.20164,3.20006
495,-0.00227966,3.20164,3.20006
496,-0.00227966,3.20164,3.20006
497,-0.00227966,3.20164,3.20006
498,-0.00227966,3.20164,3.20006
499,-0.00227966,3.20164,3.20006
500,-0.00227966,3.20164,3.20006
501,-0.00402843,3.20169,3.20006
502,-0.00234043,3.20169,3.20006
503,-0.00234043,3.20169,3.20006
504,-0.00059166,3.20164,3.20006
505,-0.00227966,3.20164,3.20006
506,-0.00227966,3.20164,3.20006
507,-0.00227966,3.20164,3.20006
508,-0.00227966,3.20164,3.20006
509,-0.000540772,3.2016,3.20006
510,-0.00221924,3.2016,3.20006
511,-0.00221924,3.2016,3.20006
512,-0.00395813,3.20164,3.20006
513,-0.00227966,3.20164,3.20006
514,-0.00227966,3.20164,3.20006
515,-0.00227966,3.20164,3.20006
516,-0.00227966,3.20164,3.20006
517,-0.00227966,3.20164,3.20006
518,-0.00227966,3.20164,3.20006
519,-0.00402843,3.20169,3.20006
520,-0.00059166,3.20164,3.20006
521,-0.00227966,3.20164,3.20006
522,-0.00227966,3.20164,3.20006
523,-0.00227966,3.20164,3.20006
524,-0.00227966,3.20164,3.20006
525,-0.000540772,3.2016,3.20006
526,-0.00221924,3.2016,3.20006
527,-0.00395813,3.20164,3.20006
528,-0.00227966,3.20164,3.20006
529,-0.000540772,3.2016,3.20006
530,-0.00221924,3.2016,3.20006
531,-0.00395813,3.20164,3.20006
532,-0.000540772,3.2016,3.20006
533,-0.00395813,3.20164,3.20006
534,-0.00227966,3.20164,3.20006
535,-0.00227966,3.20164,3.20006
536,-0.00227966,3.20164,3.20006
537,-0.00227966,3.20164,3.20006
538,-0.00227966,3.20164,3.20006
539,-0.00227966,3.20164,3.20006
540,-0.00227966,3.20164,3.20006
541,-0.00227966,3.20164,3.20006
542,-0.00227966,3.20164,3.20006
543,-0.00227966,3.20164,3.20006
544,-0.00402843,3.20169,3.20006
545,-0.00059166,3.20164,3.20006
546,-0.00402843,3.20169,3.20006
547,-0.00059166,3.20164,3.20006
548,-0.00402843,3.20169,3.20006
549,-0.00234043,3.20169,3.20006
550,-0.00059166,3.20164,3.20006
551,-0.00402843,3.20169,3.20006
552,-0.00234043,3.20169,3.20006
553,-0.00059166,3.20164,3.20006
554,-0.00227966,3.20164,3.20006
555,-0.00227966,3.20164,3.20006
556,-0.00227966,3.20164,3.20006
557,-0.00227966,3.20164,3.20006
558,-0.000540772,3.2016,3.20006
559,-0.00221924,3.2016,3.20006
560,-0.00221924,3.2016,3.20006
561,-0.00221924,3.2016,3.20006
562,-0.00221924,3.2016,3.20006
563,-0.00395813,3.20164,3.20006
564,-0.00227966,3.20164,3.20006
565,-0.00227966,3.20164,3.20006
566,-0.00227966,3.20164,3.20006
567,-0.00402843,3.20169,3.20006
568,-0.0040892,3.20173,3.20006
569,-0.000652428,3.20169,3.20006
570,-0.00234043,3.20169,3.20006
571,-0.00059166,3.20164,3.20006
572,-0.00227966,3.20164,3.20006
573,-0.00227966,3.20164,3.20006
574,-0.00227966,3.20164,3.20006
575,-0.00227966,3.20164,3.20006
576,-0.00227966,3.20164,3.20006
577,-0.00227966,3.20164,3.20006
578,-0.00227966,3.20164,3.20006
579,-0.00227966,3.20164,3.20006
580,-0.00227966,3.20164,3.20006
581,-0.00227966,3.20164,3.20006
582,-0.00227966,3.20164,3.20006
583,-0.00227966,3.20164,3.20006
584,-0.00227966,3.20164,3.20006
585,-0.00227966,3.20164,3.20006
586,-0.00227966,3.20164,3.20006
587,-0.00227966,3.20164,3.20006
588,-0.00227966,3.20164,3.20006
589,-0.00227966,3.20164,3.20006
590,-0.00402843,3.20169,3.20006
591,-0.00059166,3.20164,3.20006
592,-0.00227966,3.20164,3.20006
593,-0.00402843,3.20169,3.20006
594,-0.00234043,3.20169,3.20006
595,-0.00059166,3.20164,3.20006
596,-0.00227966,3.20164,3.20006
597,-0.00227966,3.20164,3.20006
598,-0.00227966,3.20164,3.20006
599,-0.000540772,3.2016,3.20006
600,-0.00395813,3.20164,3.20006
601,-0.00227966,3.20164,3.20006
602,-0.00227966,3.20164,3.20006
603,-0.00227966,3.20164,3.20006
604,-0.00227966,3.20164,3.20006
605,-0.00227966,3.20164,3.20006
606,-0.00227966,3.20164,3.20006
607,-0.00227966,3.20164,3.20006
608,-0.00227966,3.20164,3.20006
609,-0.00227966,3.20164,3.20006
610,-0.00227966,3.20164,3.20006
611,-0.00227966,3.20164,3.20006
612,-0.00227966,3.20164,3.20006
613,-0.00227966,3.20164,3.20006
614,-0.00227966,3.20164,3.20006
615,-0.00227966,3.20164,3.20006
616,-0.00227966,3.20164,3.20006
617,-0.00227966,3.20164,3.20006
618,-0.000540772,3.2016,3.20006
619,-0.00395813,3.20164,3.20006
620,-0.000540772,3.2016,3.20006
621,-0.00221924,3.2016,3.20006
622,-0.00395813,3.20164,3.20006
623,-0.00227966,3.20164,3.20006
624,-0.00227966,3.20164,3.20006
625,-0.00227966,3.20164,3.20006
626,-0.00402843,3.20169,3.20006
627,-0.00234043,3.20169,3.20006
628,-0.00234043,3.20169,3.20006
629,-0.00234043,3.20169,3.20006
630,-0.00234043,3.20169,3.20006
631,-0.00059166,3.20164,3.20006
632,-0.00402843,3.20169,3.20006
633,-0.00059166,3.20164,3.20006
634,-0.00227966,3.20164,3.20006
635,-0.00227966,3.20164,3.20006
636,-0.000540772,3.2016,3.20006
637,-0.00395813,3.20164,3.20006
638,-0.000540772,3.2016,3.20006
639,-0.00221924,3.2016,3.20006
640,-0.00395813,3.20164,3.20006
641,-0.000540772,3.2016,3.20006
642,-0.00395813,3.20164,3.20006
643,-0.000540772,3.2016,3.20006
644,-0.00395813,3.20164,3.20006
645,-0.00227966,3.20164,3.20006
646,-0.00227966,3.20164,3.20006
647,-0.00227966,3.20164,3.20006
648,-0.00402843,3.20169,3.20006
649,-0.00234043,3.20169,3.20006
650,-0.00059166,3.20164,3.20006
651,-0.00227966,3.20164,3.20006
652,-0.00227966,3.20164,3.20006
653,-0.00227966,3.20164,3.20006
654,-0.00227966,3.20164,3.20006
655,-0.00227966,3.20164,3.20006
656,-0.00227966,3.20164,3.20006
657,-0.00227966,3.20164,3.20006
658,-0.00227966,3.20164,3.20006
659,-0.00227966,3.20164,3.20006
660,-0.00227966,3.20164,3.20006
661,-0.00227966,3.20164,3.20006
662,-0.00227966,3.20164,3.20006
663,-0.00227966,3.20164,3.20006
664,-0.00227966,3.20164,3.20006
665,-0.00227966,3.20164,3.20006
666,-0.00227966,3.20164,3.20006
667,-0.00227966,3.20164,3.20006
668,-0.00227966,3.20164,3.20006
669,-0.00227966,3.20164,3.20006
670,-0.000540772,3.2016,3.20006
671,-0.00395813,3.20164,3.20006
672,-0.00227966,3.20164,3.20006
673,-0.00227966,3.20164,3.20006
674,-0.00227966,3.20164,3.20006
675,-0.00227966,3.20164,3.20006
676,-0.00227966,3.20164,3.20006
677,-0.00227966,3.20164,3.20006
678,-0.00227966,3.20164,3.20006
679,-0.00227966,3.20164,3.20006
680,-0.00227966,3.20164,3.20006
681,-0.00227966,3.20164,3.20006
682,-0.00227966,3.20164,3.20006
683,-0.00227966,3.20164,3.20006
684,-0.00227966,3.20164,3.20006
685,-0.00227966,3.20164,3.20006
686,-0.00402843,3.20169,3.20006
687,-0.00234043,3.20169,3.20006
688,-0.00059166,3.20164,3.20006
689,-0.00402843,3.20169,3.20006
690,-0.00059166,3.20164,3.20006
691,-0.00227966,3.20164,3.20006
692,-0.00227966,3.20164,3.20006
693,-0.00227966,3.20164,3.20006
694,-0.00227966,3.20164,3.20006
695,-0.00227966,3.20164,3.20006
696,-0.000540772,3.2016,3.20006
697,-0.00395813,3.20164,3.20006
698,-0.00227966,3.20164,3.20006
699,-0.00227966,3.20164,3.20006
700,-0.00227966,3.20164,3.20006
701,-0.00227966,3.20164,3.20006
702,-0.00227966,3.20164,3.20006
703,-0.00227966,3.20164,3.20006
704,-0.00402843,3.20169,3.20006
705,-0.00059166,3.20164,3.20006
706,-0.00227966,3.20164,3.20006
707,-0.00402843,3.20169,3.20006
708,-0.00059166,3.20164,3.20006
709,-0.00227966,3.20164,3.20006
710,-0.00227966,3.20164,3.20006
711,-0.00227966,3.20164,3.20006
712,-0.00227966,3.20164,3.20006
713,-0.000540772,3.2016,3.20006
714,-0.00395813,3.20164,3.20006
715,-0.000540772,3.2016,3.20006
716,-0.00395813,3.20164,3.20006
717,-0.000540772,3.2016,3.20006
718,-0.00395813,3.20164,3.20006
719,-0.00227966,3.20164,3.20006
720,-0.00227966,3.20164,3.20006
721,-0.000540772,3.2016,3.20006
722,-0.00395813,3.20164,3.20006
723,-0.00227966,3.20164,3.20006
724,-0.00227966,3.20164,3.20006
725,-0.00227966,3.20164,3.20006
726,-0.000540772,3.2016,3.20006
727,-0.00395813,3.20164,3.20006
728,-0.000540772,3.2016,3.20006
729,-0.00395813,3.20164,3.20006
730,-0.00227966,3.20164,3.20006
731,-0.00227966,3.20164,3.20006
732,-0.00227966,3.20164,3.20006
733,-0.00227966,3.20164,3.20006
734,-0.00227966,3.20164,3.20006
735,-0.00227966,3.20164,3.20006
736,-0.00227966,3.20164,3.20006
737,-0.00227966,3.20164,3.20006
738,-0.00227966,3.20164,3.20006
739,-0.00227966,3.20164,3.20006
740,-0.000540772,3.2016,3.20006
741,-0.00221924,3.2016,3.20006
742,-0.00221924,3.2016,3.20006
743,-0.00221924,3.2016,3.20006
744,-0.00221924,3.2016,3.20006
745,-0.00221924,3.2016,3.20006
746,-0.00221924,3.2016,3.20006
747,-0.00395813,3.20164,3.20006
748,-0.000540772,3.2016,3.20006
749,-0.00395813,3.20164,3.20006
750,-0.00227966,3.20164,3.20006
751,-0.00227966,3.20164,3.20006
752,-0.00227966,3.20164,3.20006
753,-0.00227966,3.20164,3.20006
754,-0.00402843,3.20169,3.20006
755,-0.00059166,3.20164,3.20006
756,-0.00402843,3.20169,3.20006
757,-0.00059166,3.20164,3.20006
758,-0.00227966,3.20164,3.20006
759,-0.00227966,3.20164,3.20006
760,-0.00227966,3.20164,3.20006
761,-0.00227966,3.20164,3.20006
762,-0.000540772,3.2016,3.20006
763,-0.00221924,3.2016,3.20006
764,-0.00221924,3.2016,3.20006
765,-0.00221924,3.2016,3.20006
766,-0.00221924,3.2016,3.20006
767,-0.00395813,3.20164,3.20006
768,-0.00227966,3.20164,3.20006
769,-0.00227966,3.20164,3.20006
770,-0.00227966,3.20164,3.20006
771,-0.00227966,3.20164,3.20006
772,-0.00227966,3.20164,3.20006
773,-0.00402843,3.20169,3.20006
774,-0.00059166,3.20164,3.20006
775,-0.00227966,3.20164,3.20006
776,-0.00227966,3.20164,3.20006
777,-0.00227966,3.20164,3.20006
778,-0.00227966,3.20164,3.20006
779,-0.00227966,3.20164,3.20006
780,-0.00227966,3.20164,3.20006
781,-0.00227966,3.20164,3.20006
782,-0.00227966,3.20164,3.20006
783,-0.00227966,3.20164,3.20006
784,-0.00227966,3.20164,3.20006
785,-0.00227966,3.20164,3.20006
786,-0.00402843,3.20169,3.20006
787,-0.00234043,3.20169,3.20006
788,-0.00234043,3.20169,3.20006
789,-0.00234043,3.20169,3.20006
790,-0.00234043,3.20169,3.20006
791,-0.00234043,3.20169,3.20006
792,-0.00059166,3.20164,3.20006
793,-0.00227966,3.20164,3.20006
794,-0.00227966,3.20164,3.20006
795,-0.00227966,3.20164,3.20006
796,-0.00227966,3.20164,3.20006
797,-0.00227966,3.20164,3.20006
798,-0.00227966,3.20164,3.20006
799,-0.00227966,3.20164,3.20006
800,-0.00227966,3.20164,3.20006
801,-0.00227966,3.20164,3.20006
802,-0.00227966,3.20164,3.20006
803,-0.00227966,3.20164,3.20006
804,-0.00402843,3.20169,3.20006
805,-0.00234043,3.20169,3.20006
806,-0.00234043,3.20169,3.20006
807,-0.00234043,3.20169,3.20006
808,-0.00059166,3.20164,3.20006
809,-0.00227966,3.20164,3.20006
810,-0.00227966,3.20164,3.20006
811,-0.00227966,3.20164,3.20006
812,-0.00227966,3.20164,3.20006
813,-0.00227966,3.20164,3.20006
814,-0.00227966,3.20164,3.20006
815,-0.000540772,3.2016,3.20006
816,-0.00395813,3.20164,3.20006
817,-0.00227966,3.20164,3.20006
818,-0.00227966,3.20164,3.20006
819,-0.00227966,3.20164,3.20006
820,-0.00227966,3.20164,3.20006
821,-0.00227966,3.20164,3.20006
822,-0.00227966,3.20164,3.20006
823,-0.00227966,3.20164,3.20006
824,-0.00227966,3.20164,3.20006
825,-0.00227966,3.20164,3.20006
826,-0.00227966,3.20164,3.20006
827,-0.00227966,3.20164,3.20006
828,-0.00227966,3.20164,3.20006
829,-0.00227966,3.20164,3.20006
830,-0.00227966,3.20164,3.20006
831,-0.00227966,3.20164,3.20006
832,-0.00227966,3.20164,3.20006
833,-0.00227966,3.20164,3.20006
834,-0.00402843,3.20169,3.20006
835,-0.00059166,3.20164,3.20006
836,-0.00402843,3.20169,3.20006
837,-0.00234043,3.20169,3.20006
838,-0.00234043,3.20169,3.20006
839,-0.00059166,3.20164,3.20006
840,-0.00227966,3.20164,3.20006
841,-0.00227966,3.20164,3.20006
842,-0.00227966,3.20164,3.20006
843,-0.000540772,3.2016,3.20006
844,-0.00221924,3.2016,3.20006
845,-0.00221924,3.2016,3.20006
846,-0.00221924,3.2016,3.20006
847,-0.00395813,3.20164,3.20006
848,-0.000540772,3.2016,3.20006
849,-0.00221924,3.2016,3.20006
850,-0.00395813,3.20164,3.20006
851,-0.00227966,3.20164,3.20006
852,-0.00227966,3.20164,3.20006
853,-0.00227966,3.20164,3.20006
854,-0.00227966,3.20164,3.20006
855,-0.00227966,3.20164,3.20006
856,-0.00227966,3.20164,3.20006
857,-0.00227966,3.20164,3.20006
858,-0.00227966,3.20164,3.20006
859,-0.00227966,3.20164,3.20006
860,-0.00227966,3.20164,3.20006
861,-0.00227966,3.20164,3.20006
862,-0.00227966,3.20164,3.20006
863,-0.00227966,3.20164,3.20006
864,-0.00227966,3.20164,3.20006
865,-0.00227966,3.20164,3.20006
866,-0.00227966,3.20164,3.20006
867,-0.00227966,3.20164,3.20006
868,-0.00227966,3.20164,3.20006
869,-0.00227966,3.20164,3.20006
870,-0.00227966,3.20164,3.20006
871,-0.00227966,3.20164,3.20006
872,-0.00227966,3.20164,3.20006
873,-0.00227966,3.20164,3.20006
874,-0.00402843,3.20169,3.20006
875,-0.00059166,3.20164,3.20006
876,-0.00227966,3.20164,3.20006
877,-0.00227966,3.20164,3.20006
878,-0.00227966,3.20164,3.20006
879,-0.00227966,3.20164,3.20006
880,-0.00227966,3.20164,3.20006
881,-0.00227966,3.20164,3.20006
882,-0.000540772,3.2016,3.20006
883,-0.00221924,3.2016,3.20006
884,-0.00395813,3.20164,3.20006
885,-0.00227966,3.20164,3.20006
886,-0.00227966,3.20164,3.20006
887,-0.00227966,3.20164,3.20006
888,-0.00227966,3.20164,3.20006
889,-0.00227966,3.20164,3.20006
890,-0.00227966,3.20164,3.20006
891,-0.00227966,3.20164,3.20006
892,-0.00227966,3.20164,3.20006
893,-0.00227966,3.20164,3.20006
894,-0.00227966,3.20164,3.20006
895,-0.00227966,3.20164,3.20006
896,-0.00227966,3.20164,3.20006
897,-0.00227966,3.20164,3.20006
898,-0.00227966,3.20164,3.20006
899,-0.00227966,3.20164,3.20006
900,-0.000540772,3.2016,3.20006
901,-0.00221924,3.2016,3.20006
902,-0.00221924,3.2016,3.20006
903,-0.00221924,3.2016,3.20006
904,-0.00221924,3.2016,3.20006
905,-0.00221924,3.2016,3.20006
906,-0.00221924,3.2016,3.20006
907,-0.00221924,3.2016,3.20006
908,-0.00221924,3.2016,3.20006
909,-0.00395813,3.20164,3.20006
910,-0.00227966,3.20164,3.20006
911,-0.00227966,3.20164,3.20006
912,-0.00227966,3.20164,3.20006
913,-0.00227966,3.20164,3.20006
914,-0.00227966,3.20164,3.20006
915,-0.00227966,3.20164,3.20006
916,-0.00227966,3.20164,3.20006
917,-0.00227966,3.20164,3.20006
918,-0.00227966,3.20164,3.20006
919,-0.00227966,3.20164,3.20006
920,-0.00227966,3.20164,3.20006
921,-0.00227966,3.20164,3.20006
922,-0.00227966,3.20164,3.20006
923,-0.000540772,3.2016,3.20006
924,-0.00395813,3.20164,3.20006
925,-0.00227966,3.20164,3.20006
926,-0.00227966,3.20164,3.20006
927,-0.00227966,3.20164,3.20006
928,-0.00227966,3.20164,3.20006
929,-0.00402843,3.20169,3.20006
930,-0.00234043,3.20169,3.20006
931,-0.00059166,3.20164,3.20006
932,-0.00402843,3.20169,3.20006
933,-0.00059166,3.20164,3.20006
934,-0.00227966,3.20164,3.20006
935,-0.00402843,3.20169,3.20006
936,-0.00059166,3.20164,3.20006
937,-0.00227966,3.20164,3.20006
938,-0.00227966,3.20164,3.20006
939,-0.00227966,3.20164,3.20006
940,-0.000540772,3.2016,3.20006
941,-0.00395813,3.20164,3.20006
942,-0.000540772,3.2016,3.20006
943,-0.00395813,3.20164,3.20006
944,-0.00227966,3.20164,3.20006
945,-0.00227966,3.20164,3.20006
946,-0.00227966,3.20164,3.20006
947,-0.00227966,3.20164,3.20006
948,-0.00227966,3.20164,3.20006
949,-0.00227966,3.20164,3.20006
950,-0.00227966,3.20164,3.20006
951,-0.00402843,3.20169,3.20006
952,-0.00059166,3.20164,3.20006
953,-0.00402843,3.20169,3.20006
954,-0.00234043,3.20169,3.20006
955,-0.00234043,3.20169,3.20006
956,-0.00234043,3.20169,3.20006
957,-0.00059166,3.20164,3.20006
958,-0.00227966,3.20164,3.20006
959,-0.00227966,3.20164,3.20006
960,-0.000540772,3.2016,3.20006
961,-0.00221924,3.2016,3.20006
962,-0.00221924,3.2016,3.20006
963,-0.00221924,3.2016,3.20006
964,-0.00221924,3.2016,3.20006
965,-0.00221924,3.2016,3.20006
966,-0.00221924,3.2016,3.20006
967,-0.00395813,3.20164,3.20006
968,-0.00227966,3.20164,3.20006
969,-0.00227966,3.20164,3.20006
970,-0.00227966,3.20164,3.20006
971,-0.00227966,3.20164,3.20006
972,-0.00227966,3.20164,3.20006
973,-0.00402843,3.20169,3.20006
974,-0.00059166,3.20164,3.20006
975,-0.00402843,3.20169,3.20006
976,-0.00234043,3.20169,3.20006
977,-0.00234043,3.20169,3.20006
978,-0.00059166,3.20164,3.20006
979,-0.00402843,3.20169,3.20006
980,-0.00234043,3.20169,3.20006
981,-0.00059166,3.20164,3.20006
982,-0.00227966,3.20164,3.20006
983,-0.000540772,3.2016,3.20006
984,-0.00221924,3.2016,3.20006
985,-0.00221924,3.2016,3.20006
986,-0.00395813,3.20164,3.20006
987,-0.000540772,3.2016,3.20006
988,-0.00221924,3.2016,3.20006
989,-0.00221924,3.2016,3.20006
990,-0.00395813,3.20164,3.20006
991,-0.00227966,3.20164,3.20006
992,-0.00227966,3.20164,3.20006
993,-0.00227966,3.20164,3.20006
994,-0.00227966,3.20164,3.20006
995,-0.00402843,3.20169,3.20006
996,-0.00059166,3.20164,3.20006
997,-0.00227966,3.20164,3.20006
998,-0.00227966,3.20164,3.20006
999,-0.00227966,3.20164,3.20006
1000,-0.00227966,3.20164,3.20006
1001,-0.00227966,3.20164,3.20006
1002,-0.00227966,3.20164,3.20006
1003,-0.00227966,3.20164,3.20006
1004,-0.00227966,3.20164,3.20006
1005,-0.000540772,3.2016,3.20006
1006,-0.00221924,3.2016,3.20006
1007,-0.00395813,3.20164,3.20006
1008,-0.00227966,3.20164,3.20006
1009,-0.00227966,3.20164,3.20006
1010,-0.00227966,3.20164,3.20006
1011,-0.00402843,3.20169,3.20006
1012,-0.0040892,3.20173,3.20006
1013,-0.0024012,3.20173,3.20006
1014,-0.000652428,3.20169,3.20006
1015,-0.00234043,3.20169,3.20006
1016,-0.00234043,3.20169,3.20006
1017,-0.00059166,3.20164,3.20006
1018,-0.00227966,3.20164,3.20006
1019,-0.00227966,3.20164,3.20006
1020,-0.00227966,3.20164,3.20006
1021,-0.00227966,3.20164,3.20006
1022,-0.000540772,3.2016,3.20006
1023,-0.00221924,3.2016,3.20006
1024,-0.00221924,3.2016,3.20006
1025,-0.00395813,3.20164,3.20006
1026,-0.00227966,3.20164,3.20006
1027,-0.00227966,3.20164,3.20006
1028,-0.00402843,3.20169,3.20006
1029,-0.00059166,3.20164,3.20006
1030,-0.00402843,3.20169,3.20006
1031,-0.00059166,3.20164,3.20006
1032,-0.00227966,3.20164,3.20006
1033,-0.00227966,3.20164,3.20006
1034,-0.00227966,3.20164,3.20006
1035,-0.00227966,3.20164,3.20006
1036,-0.00227966,3.20164,3.20006
1037,-0.00227966,3.20164,3.20006
1038,-0.00227966,3.20164,3.20006
1039,-0.00227966,3.20164,3.20006
1040,-0.00227966,3.20164,3.20006
1041,-0.00227966,3.20164,3.20006
1042,-0.00227966,3.20164,3.20006
1043,-0.00227966,3.20164,3.20006
1044,-0.00227966,3.20164,3.20006
1045,-0.00402843,3.20169,3.20006
1046,-0.00234043,3.20169,3.20006
1047,-0.00059166,3.20164,3.20006
1048,-0.00227966,3.20164,3.20006
1049,-0.00227966,3.20164,3.20006
1050,-0.00227966,3.20164,3.20006
1051,-0.000540772,3.2016,3.20006
1052,-0.00221924,3.2016,3.20006
1053,-0.00221924,3.2016,3.20006
1054,-0.00221924,3.2016,3.20006
1055,-0.00221924,3.2016,3.20006
1056,-0.00395813,3.20164,3.20006
1057,-0.00227966,3.20164,3.20006
1058,-0.00227966,3.20164,3.20006
1059,-0.00402843,3.20169,3.20006
1060,-0.00059166,3.20164,3.20006
1061,-0.00402843,3.20169,3.20006
1062,-0.00059166,3.20164,3.20006
1063,-0.00227966,3.20164,3.20006
1064,-0.00227966,3.20164,3.20006
1065,-0.00227966,3.20164,3.20006
1066,-0.00227966,3.20164,3.20006
1067,-0.00227966,3.20164,3.20006
1068,-0.00227966,3.20164,3.20006
1069,-0.00227966,3.20164,3.20006
1070,-0.000540772,3.2016,3.20006
1071,-0.00395813,3.20164,3.20006
1072,-0.000540772,3.2016,3.20006
1073,-0.00395813,3.20164,3.20006
1074,-0.00227966,3.20164,3.20006
1075,-0.00227966,3.20164,3.20006
1076,-0.00227966,3.20164,3.20006
1077,-0.00227966,3.20164,3.20006
1078,-0.00227966,3.20164,3.20006
1079,-0.00227966,3.20164,3.20006
1080,-0.00227966,3.20164,3.20006
1081,-0.00227966,3.20164,3.20006
1082,-0.00227966,3.20164,3.20006
1083,-0.00227966,3.20164,3.20006
1084,-0.00227966,3.20164,3.20006
1085,-0.00227966,3.20164,3.20006
1086,-0.00227966,3.20164,3.20006
1087,-0.00227966,3.20164,3.20006
1088,-0.00227966,3.20164,3.20006
1089,-0.00227966,3.20164,3.20006
1090,-0.00227966,3.20164,3.20006
1091,-0.00227966,3.20164,3.20006
1092,-0.000540772,3.2016,3.20006
1093,-0.00395813,3.20164,3.20006
1094,-0.000540772,3.2016,3.20006
1095,-0.00395813,3.20164,3.20006
1096,-0.00227966,3.20164,3.20006
1097,-0.000540772,3.2016,3.20006
1098,-0.00395813,3.20164,3.20006
1099,-0.000540772,3.2016,3.20006
1100,-0.00395813,3.20164,3.20006
1101,-0.00227966,3.20164,3.20006
1102,-0.00227966,3.20164,3.20006
1103,-0.00227966,3.20164,3.20006
1104,-0.000540772,3.2016,3.20006
1105,-0.00395813,3.20164,3.20006
1106,-0.00227966,3.20164,3.20006
1107,-0.00227966,3.20164,3.20006
1108,-0.00227966,3.20164,3.20006
1109,-0.00227966,3.20164,3.20006
1110,-0.00227966,3.20164,3.20006
1111,-0.00402843,3.20169,3.20006
1112,-0.00234043,3.20169,3.20006
1113,-0.00234043,3.20169,3.20006
1114,-0.00234043,3.20169,3.20006
1115,-0.00059166,3.20164,3.20006
1116,-0.00402843,3.20169,3.20006
1117,-0.00234043,3.20169,3.20006
1118,-0.00059166,3.20164,3.20006
1119,-0.00227966,3.20164,3.20006
1120,-0.00227966,3.20164,3.20006
1121,-0.00227966,3.20164,3.20006
1122,-0.00227966,3.20164,3.20006
1123,-0.00227966,3.20164,3.20006
1124,-0.00227966,3.20164,3.20006
1125,-0.00227966,3.20164,3.20006
1126,-0.00227966,3.20164,3.20006
1127,-0.00227966,3.20164,3.20006
1128,-0.00227966,3.20164,3.20006
1129,-0.00227966,3.20164,3.20006
1130,-0.00227966,3.20164,3.20006
1131,-0.00227966,3.20164,3.20006
1132,-0.00402843,3.20169,3.20006
1133,-0.00059166,3.20164,3.20006
1134,-0.00227966,3.20164,3.20006
1135,-0.00227966,3.20164,3.20006
1136,-0.00227966,3.20164,3.20006
1137,-0.00227966,3.20164,3.20006
1138,-0.00227966,3.20164,3.20006
1139,-0.00227966,3.20164,3.20006
1140,-0.00227966,3.20164,3.20006
1141,-0.00227966,3.20164,3.20006
1142,-0.00227966,3.20164,3.20006
1143,-0.00227966,3.20164,3.20006
1144,-0.00227966,3.20164,3.20006
1145,-0.00227966,3.20164,3.20006
1146,-0.00227966,3.20164,3.20006
1147,-0.00227966,3.20164,3.20006
1148,-0.00227966,3.20164,3.20006
1149,-0.00227966,3.20164,3.20006
1150,-0.00227966,3.20164,3.20006
1151,-0.00227966,3.20164,3.20006
1152,-0.00227966,3.20164,3.20006
1153,-0.00227966,3.20164,3.20006
1154,-0.00227966,3.20164,3.20006
1155,-0.00227966,3.20164,3.20006
1156,-0.00227966,3.20164,3.20006
1157,-0.00227966,3.20164,3.20006
1158,-0.00227966,3.20164,3.20006
1159,-0.00227966,3.20164,3.20006
1160,-0.00227966,3.20164,3.20006
1161,-0.00227966,3.20164,3.20006
1162,-0.00227966,3.20164,3.20006
1163,-0.00227966,3.20164,3.20006
1164,-0.00227966,3.20164,3.20006
1165,-0.00402843,3.20169,3.20006
1166,-0.00059166,3.20164,3.20006
1167,-0.00227966,3.20164,3.20006
1168,-0.00402843,3.20169,3.20006
1169,-0.00059166,3.20164,3.20006
1170,-0.00227966,3.20164,3.20006
1171,-0.00227966,3.20164,3.20006
1172,-0.00227966,3.20164,3.20006
1173,-0.00227966,3.20164,3.20006
1174,-0.00227966,3.20164,3.20006
1175,-0.00227966,3.20164,3.20006
1176,-0.00227966,3.20164,3.20006
1177,-0.000540772,3.2016,3.20006
1178,-0.00395813,3.20164,3.20006
1179,-0.000540772,3.2016,3.20006
1180,-0.00395813,3.20164,3.20006
1181,-0.00227966,3.20164,3.20006
1182,-0.00227966,3.20164,3.20006
1183,-0.00227966,3.20164,3.20006
1184,-0.00227966,3.20164,3.20006
1185,-0.000540772,3.2016,3.20006
1186,-0.00395813,3.20164,3.20006
1187,-0.00227966,3.20164,3.20006
1188,-0.00227966,3.20164,3.20006
1189,-0.00227966,3.20164,3.20006
1190,-0.00227966,3.20164,3.20006
1191,-0.00227966,3.20164,3.20006
1192,-0.00227966,3.20164,3.20006
1193,-0.00227966,3.20164,3.20006
1194,-0.00227966,3.20164,3.20006
1195,-0.00227966,3.20164,3.20006
1196,-0.00227966,3.20164,3.20006
1197,-0.00227966,3.20164,3.20006
1198,-0.00227966,3.20164,3.20006
1199,-0.00227966,3.20164,3.20006
1200,-0.000540772,3.2016,3.20006
1201,-0.00221924,3.2016,3.20006
1202,-0.00221924,3.2016,3.20006
1203,-0.00395813,3.20164,3.20006
1204,-0.00227966,3.20164,3.20006
1205,-0.00227966,3.20164,3.20006
1206,-0.00227966,3.20164,3.20006
1207,-0.00227966,3.20164,3.20006
1208,-0.00402843,3.20169,3.20006
1209,-0.00234043,3.20169,3.20006
1210,-0.00234043,3.20169,3.20006
1211,-0.00234043,3.20169,3.20006
1212,-0.00059166,3.20164,3.20006
1213,-0.00402843,3.20169,3.20006
1214,-0.00234043,3.20169,3.20006
1215,-0.00059166,3.20164,3.20006
1216,-0.00227966,3.20164,3.20006
1217,-0.00227966,3.20164,3.20006
1218,-0.00227966,3.20164,3.20006
1219,-0.000540772,3.2016,3.20006
1220,-0.00395813,3.20164,3.20006
1221,-0.00227966,3.20164,3.20006
1222,-0.00227966,3.20164,3.20006
1223,-0.00227966,3.20164,3.20006
1224,-0.00227966,3.20164,3.20006
1225,-0.00402843,3.20169,3.20006
1226,-0.00234043,3.20169,3.20006
1227,-0.00234043,3.20169,3.20006
1228,-0.00234043,3.20169,3.20006
1229,-0.00059166,3.20164,3.20006
1230,-0.00402843,3.20169,3.20006
1231,-0.00059166,3.20164,3.20006
1232,-0.00227966,3.20164,3.20006
1233,-0.00227966,3.20164,3.20006
1234,-0.000540772,3.2016,3.20006
1235,-0.00221924,3.2016,3.20006
1236,-0.000470467,3.20156,3.20006
1237,-0.00215847,3.20156,3.20006
1238,-0.00215847,3.20156,3.20006
1239,-0.00390724,3.2016,3.20006
1240,-0.00221924,3.2016,3.20006
1241,-0.00221924,3.2016,3.20006
1242,-0.00395813,3.20164,3.20006
1243,-0.00227966,3.20164,3.20006
1244,-0.00227966,3.20164,3.20006
1245,-0.00402843,3.20169,3.20006
1246,-0.00234043,3.20169,3.20006
1247,-0.00234043,3.20169,3.20006
1248,-0.00234043,3.20169,3.20006
1249,-0.00234043,3.20169,3.20006
1250,-0.00234043,3.20169,3.20006
1251,-0.00059166,3.20164,3.20006
1252,-0.00227966,3.20164,3.20006
1253,-0.00227966,3.20164,3.20006
1254,-0.00227966,3.20164,3.20006
1255,-0.000540772,3.2016,3.20006
1256,-0.00395813,3.20164,3.20006
1257,-0.000540772,3.2016,3.20006
1258,-0.00221924,3.2016,3.20006
1259,-0.00221924,3.2016,3.20006
1260,-0.00221924,3.2016,3.20006
1261,-0.00395813,3.20164,3.20006
1262,-0.00227966,3.20164,3.20006
1263,-0.00227966,3.20164,3.20006
1264,-0.00227966,3.20164,3.20006
1265,-0.00227966,3.20164,3.20006
1266,-0.00402843,3.20169,3.20006
1267,-0.00234043,3.20169,3.20006
1268,-0.00234043,3.20169,3.20006
1269,-0.00234043,3.20169,3.20006
1270,-0.00234043,3.20169,3.20006
1271,-0.00059166,3.20164,3.20006
1272,-0.00227966,3.20164,3.20006
1273,-0.00227966,3.20164,3.20006
1274,-0.00227966,3.20164,3.20006
1275,-0.00227966,3.20164,3.20006
1276,-0.00227966,3.20164,3.20006
1277,-0.00227966,3.20164,3.20006
1278,-0.000540772,3.2016,3.20006
1279,-0.00395813,3.20164,3.20006
1280,-0.000540772,3.2016,3.20006
1281,-0.00395813,3.20164,3.20006
1282,-0.00227966,3.20164,3.20006
1283,-0.00227966,3.20164,3.20006
1284,-0.00227966,3.20164,3.20006
1285,-0.00227966,3.20164,3.20006
1286,-0.00227966,3.20164,3.20006
1287,-0.00227966,3.20164,3.20006
1288,-0.00227966,3.20164,3.20006
1289,-0.00227966,3.20164,3.20006
1290,-0.00227966,3.20164,3.20006
1291,-0.00227966,3.20164,3.20006
1292,-0.00227966,3.20164,3.20006
1293,-0.00227966,3.20164,3.20006
1294,-0.00227966,3.20164,3.20006
1295,-0.00227966,3.20164,3.20006
1296,-0.000540772,3.2016,3.20006
1297,-0.00395813,3.20164,3.20006
1298,-0.000540772,3.2016,3.20006
1299,-0.00221924,3.2016,3.20006
1300,-0.00395813,3.20164,3.20006
1301,-0.00227966,3.20164,3.20006
1302,-0.00402843,3.20169,3.20006
1303,-0.00059166,3.20164,3.20006
1304,-0.00402843,3.20169,3.20006
1305,-0.00059166,3.20164,3.20006
1306,-0.00227966,3.20164,3.20006
1307,-0.000540772,3.2016,3.20006
1308,-0.00221924,3.2016,3.20006
1309,-0.00221924,3.2016,3.20006
1310,-0.00221924,3.2016,3.20006
1311,-0.00221924,3.2016,3.20006
1312,-0.00221924,3.2016,3.20006
1313,-0.00221924,3.2016,3.20006
1314,-0.00221924,3.2016,3.20006
1315,-0.00221924,3.2016,3.20006
1316,-0.00395813,3.20164,3.20006
1317,-0.00227966,3.20164,3.20006
1318,-0.00227966,3.20164,3.20006
1319,-0.00402843,3.20169,3.20006
1320,-0.00234043,3.20169,3.20006
1321,-0.00234043,3.20169,3.20006
1322,-0.00234043,3.20169,3.20006
1323,-0.00234043,3.20169,3.20006
1324,-0.00059166,3.20164,3.20006
1325,-0.00227966,3.20164,3.20006
1326,-0.00227966,3.20164,3.20006
1327,-0.00227966,3.20164,3.20006
1328,-0.00227966,3.20164,3.20006
1329,-0.000540772,3.2016,3.20006
1330,-0.00221924,3.2016,3.20006
1331,-0.00395813,3.20164,3.20006
1332,-0.00227966,3.20164,3.20006
1333,-0.00227966,3.20164,3.20006
1334,-0.00227966,3.20164,3.20006
1335,-0.00227966,3.20164,3.20006
1336,-0.00227966,3.20164,3.20006
1337,-0.00227966,3.20164,3.20006
1338,-0.00402843,3.20169,3.20006
1339,-0.00059166,3.20164,3.20006
1340,-0.00402843,3.20169,3.20006
1341,-0.00059166,3.20164,3.20006
1342,-0.00227966,3.20164,3.20006
1343,-0.00227966,3.20164,3.20006
1344,-0.000540772,3.2016,3.20006
1345,-0.00395813,3.20164,3.20006
1346,-0.000540772,3.2016,3.20006
1347,-0.00221924,3.2016,3.20006
1348,-0.00221924,3.2016,3.20006
1349,-0.00221924,3.2016,3.20006
1350,-0.00221924,3.2016,3.20006
1351,-0.00395813,3.20164,3.20006
1352,-0.000540772,3.2016,3.20006
1353,-0.00395813,3.20164,3.20006
1354,-0.00227966,3.20164,3.20006
1355,-0.00227966,3.20164,3.20006
1356,-0.00402843,3.20169,3.20006
1357,-0.00059166,3.20164,3.20006
1358,-0.00227966,3.20164,3.20006
1359,-0.00227966,3.20164,3.20006
1360,-0.00227966,3.20164,3.20006
1361,-0.00227966,3.20164,3.20006
1362,-0.000540772,3.2016,3.20006
1363,-0.00395813,3.20164,3.20006
1364,-0.00227966,3.20164,3.20006
1365,-0.00227966,3.20164,3.20006
1366,-0.000540772,3.2016,3.20006
1367,-0.00395813,3.20164,3.20006
1368,-0.000540772,3.2016,3.20006
1369,-0.00221924,3.2016,3.20006
1370,-0.00221924,3.2016,3.20006
1371,-0.00395813,3.20164,3.20006
1372,-0.00227966,3.20164,3.20006
1373,-0.00227966,3.20164,3.20006
1374,-0.00227966,3.20164,3.20006
1375,-0.00227966,3.20164,3.20006
1376,-0.00227966,3.20164,3.20006
1377,-0.00227966,3.20164,3.20006
1378,-0.00227966,3.20164,3.20006
1379,-0.00402843,3.20169,3.20006
1380,-0.00234043,3.20169,3.20006
1381,-0.00059166,3.20164,3.20006
1382,-0.00227966,3.20164,3.20006
1383,-0.000540772,3.2016,3.20006
1384,-0.00395813,3.20164,3.20006
1385,-0.000540772,3.2016,3.20006
1386,-0.00221924,3.2016,3.20006
1387,-0.00221924,3.2016,3.20006
1388,-0.00221924,3.2016,3.20006
1389,-0.00221924,3.2016,3.20006
1390,-0.00221924,3.2016,3.20006
1391,-0.00395813,3.20164,3.20006
1392,-0.00227966,3.20164,3.20006
1393,-0.00227966,3.20164,3.20006
1394,-0.00227966,3.20164,3.20006
1395,-0.00227966,3.20164,3.20006
1396,-0.00227966,3.20164,3.20006
1397,-0.00227966,3.20164,3.20006
1398,-0.00227966,3.20164,3.20006
1399,-0.00227966,3.20164,3.20006
1400,-0.00227966,3.20164,3.20006
1401,-0.00227966,3.20164,3.20006
1402,-0.00227966,3.20164,3.20006
1403,-0.00227966,3.20164,3.20006
1404,-0.00227966,3.20164,3.20006
1405,-0.00402843,3.20169,3.20006
1406,-0.00059166,3.20164,3.20006
1407,-0.00227966,3.20164,3.20006
1408,-0.00227966,3.20164,3.20006
1409,-0.00227966,3.20164,3.20006
1410,-0.00227966,3.20164,3.20006
1411,-0.00227966,3.20164,3.20006
1412,-0.00227966,3.20164,3.20006
1413,-0.000540772,3.2016,3.20006
1414,-0.00395813,3.20164,3.20006
1415,-0.00227966,3.20164,3.20006
1416,-0.00227966,3.20164,3.20006
1417,-0.00227966,3.20164,3.20006
1418,-0.00227966,3.20164,3.20006
1419,-0.00227966,3.20164,3.20006
1420,-0.00402843,3.20169,3.20006
1421,-0.00059166,3.20164,3.20006
1422,-0.00402843,3.20169,3.20006
1423,-0.00234043,3.20169,3.20006
1424,-0.00234043,3.20169,3.20006
1425,-0.00234043,3.20169,3.20006
1426,-0.00059166,3.20164,3.20006
1427,-0.00227966,3.20164,3.20006
1428,-0.00227966,3.20164,3.20006
1429,-0.000540772,3.2016,3.20006
1430,-0.00221924,3.2016,3.20006
1431,-0.00221924,3.2016,3.20006
1432,-0.00221924,3.2016,3.20006
1433,-0.00221924,3.2016,3.20006
1434,-0.00221924,3.2016,3.20006
1435,-0.00221924,3.2016,3.20006
1436,-0.00221924,3.2016,3.20006
1437,-0.00221924,3.2016,3.20006
1438,-0.00395813,3.20164,3.20006
1439,-0.00227966,3.20164,3.20006
1440,-0.00227966,3.20164,3.20006
1441,-0.00402843,3.20169,3.20006
1442,-0.00059166,3.20164,3.20006
1443,-0.00227966,3.20164,3.20006
1444,-0.00227966,3.20164,3.20006
1445,-0.00402843,3.20169,3.20006
1446,-0.00059166,3.20164,3.20006
1447,-0.00227966,3.20164,3.20006
1448,-0.00227966,3.20164,3.20006
1449,-0.00227966,3.20164,3.20006
1450,-0.00227966,3.20164,3.20006
1451,-0.00227966,3.20164,3.20006
1452,-0.00227966,3.20164,3.20006
1453,-0.00227966,3.20164,3.20006
1454,-0.00227966,3.20164,3.20006
1455,-0.00227966,3.20164,3.20006
1456,-0.00227966,3.20164,3.20006
1457,-0.00402843,3.20169,3.20006
1458,-0.00234043,3.20169,3.20006
1459,-0.00059166,3.20164,3.20006
1460,-0.00227966,3.20164,3.20006
1461,-0.00227966,3.20164,3.20006
1462,-0.00227966,3.20164,3.20006
1463,-0.00227966,3.20164,3.20006
1464,-0.00227966,3.20164,3.20006
1465,-0.00227966,3.20164,3.20006
1466,-0.00227966,3.20164,3.20006
1467,-0.00227966,3.20164,3.20006
1468,-0.000540772,3.2016,3.20006
1469,-0.00221924,3.2016,3.20006
1470,-0.00395813,3.20164,3.20006
1471,-0.00227966,3.20164,3.20006
1472,-0.00227966,3.20164,3.20006
1473,-0.00227966,3.20164,3.20006
1474,-0.00402843,3.20169,3.20006
1475,-0.00234043,3.20169,3.20006
1476,-0.00234043,3.20169,3.20006
1477,-0.00234043,3.20169,3.20006
1478,-0.00234043,3.20169,3.20006
1479,-0.00234043,3.20169,3.20006
1480,-0.00059166,3.20164,3.20006
1481,-0.00227966,3.20164,3.20006
1482,-0.00227966,3.20164,3.20006
1483,-0.00227966,3.20164,3.20006
1484,-0.00227966,3.20164,3.20006
1485,-0.00227966,3.20164,3.20006
1486,-0.000540772,3.2016,3.20006
1487,-0.00221924,3.2016,3.20006
1488,-0.00221924,3.2016,3.20006
1489,-0.00221924,3.2016,3.20006
1490,-0.00221924,3.2016,3.20006
1491,-0.00221924,3.2016,3.20006
1492,-0.00395813,3.20164,3.20006
1493,-0.00227966,3.20164,3.20006
1494,-0.00227966,3.20164,3.20006
1495,-0.00227966,3.20164,3.20006
1496,-0.00227966,3.20164,3.20006
1497,-0.00227966,3.20164,3.20006
1498,-0.00227966,3.20164,3.20006
1499,-0.00227966,3.20164,3.20006
1500,-0.000540772,3.2016,3.20006
1501,-0.00395813,3.20164,3.20006
1502,-0.000540772,3.2016,3.20006
1503,-0.00221924,3.2016,3.20006
1504,-0.00395813,3.20164,3.20006
1505,-0.00227966,3.20164,3.20006
1506,-0.00227966,3.20164,3.20006
1507,-0.00227966,3.20164,3.20006
1508,-0.00227966,3.20164,3.20006
1509,-0.000540772,3.2016,3.20006
1510,-0.00395813,3.20164,3.20006
1511,-0.00227966,3.20164,3.20006
1512,-0.00227966,3.20164,3.20006
1513,-0.00227966,3.20164,3.20006
1514,-0.00227966,3.20164,3.20006
1515,-0.00227966,3.20164,3.20006
1516,-0.00227966,3.20164,3.20006
1517,-0.00227966,3.20164,3.20006
1518,-0.00227966,3.20164,3.20006
1519,-0.00227966,3.20164,3.20006
1520,-0.00227966,3.20164,3.20006
1521,-0.00227966,3.20164,3.20006
1522,-0.00402843,3.20169,3.20006
1523,-0.00234043,3.20169,3.20006
1524,-0.00059166,3.20164,3.20006
1525,-0.00227966,3.20164,3.20006
1526,-0.00227966,3.20164,3.20006
1527,-0.00227966,3.20164,3.20006
1528,-0.00227966,3.20164,3.20006
1529,-0.000540772,3.2016,3.20006
1530,-0.00221924,3.2016,3.20006
1531,-0.00395813,3.20164,3.20006
1532,-0.00227966,3.20164,3.20006
1533,-0.00227966,3.20164,3.20006
1534,-0.00227966,3.20164,3.20006
1535,-0.00227966,3.20164,3.20006
1536,-0.00227966,3.20164,3.20006
1537,-0.00227966,3.20164,3.20006
1538,-0.00227966,3.20164,3.20006
1539,-0.00227966,3.20164,3.20006
1540,-0.00227966,3.20164,3.20006
1541,-0.00227966,3.20164,3.20006
1542,-0.00227966,3.20164,3.20006
1543,-0.00227966,3.20164,3.20006
1544,-0.00227966,3.20164,3.20006
1545,-0.00402843,3.20169,3.20006
1546,-0.00059166,3.20164,3.20006
1547,-0.00227966,3.20164,3.20006
1548,-0.00227966,3.20164,3.20006
1549,-0.00227966,3.20164,3.20006
1550,-0.00227966,3.20164,3.20006
1551,-0.00227966,3.20164,3.20006
1552,-0.00227966,3.20164,3.20006
1553,-0.00227966,3.20164,3.20006
1554,-0.000540772,3.2016,3.20006
1555,-0.00395813,3.20164,3.20006
1556,-0.00227966,3.20164,3.20006
1557,-0.00227966,3.20164,3.20006
1558,-0.00227966,3.20164,3.20006
1559,-0.00227966,3.20164,3.20006
1560,-0.00227966,3.20164,3.20006
1561,-0.00227966,3.20164,3.20006
1562,-0.00227966,3.20164,3.20006
1563,-0.00227966,3.20164,3.20006
1564,-0.00227966,3.20164,3.20006
1565,-0.00227966,3.20164,3.20006
1566,-0.00227966,3.20164,3.20006
1567,-0.00227966,3.20164,3.20006
1568,-0.00227966,3.20164,3.20006
1569,-0.00227966,3.20164,3.20006
1570,-0.00227966,3.20164,3.20006
1571,-0.00227966,3.20164,3.20006
1572,-0.00227966,3.20164,3.20006
1573,-0.00227966,3.20164,3.20006
1574,-0.00227966,3.20164,3.20006
1575,-0.00227966,3.20164,3.20006
1576,-0.00227966,3.20164,3.20006
1577,-0.00227966,3.20164,3.20006
1578,-0.00227966,3.20164,3.20006
1579,-0.00227966,3.20164,3.20006
1580,-0.00227966,3.20164,3.20006
1581,-0.00227966,3.20164,3.20006
1582,-0.00227966,3.20164,3.20006
1583,-0.00227966,3.20164,3.20006
1584,-0.00227966,3.20164,3.20006
1585,-0.00227966,3.20164,3.20006
1586,-0.00227966,3.20164,3.20006
1587,-0.00227966,3.20164,3.20006
1588,-0.00227966,3.20164,3.20006
1589,-0.00227966,3.20164,3.20006
1590,-0.00227966,3.20164,3.20006
1591,-0.00227966,3.20164,3.20006
1592,-0.000540772,3.2016,3.20006
1593,-0.00395813,3.20164,3.20006
1594,-0.00227966,3.20164,3.20006
1595,-0.00227966,3.20164,3.20006
1596,-0.00402843,3.20169,3.20006
1597,-0.00059166,3.20164,3.20006
1598,-0.00227966,3.20164,3.20006
1599,-0.00227966,3.20164,3.20006
1600,-0.000540772,3.2016,3.20006
1601,-0.00395813,3.20164,3.20006
1602,-0.00227966,3.20164,3.20006
1603,-0.00227966,3.20164,3.20006
1604,-0.00227966,3.20164,3.20006
1605,-0.00227966,3.20164,3.20006
1606,-0.00227966,3.20164,3.20006
1607,-0.00227966,3.20164,3.20006
1608,-0.00227966,3.20164,3.20006
1609,-0.00227966,3.20164,3.20006
1610,-0.00227966,3.20164,3.20006
1611,-0.00227966,3.20164,3.20006
1612,-0.00227966,3.20164,3.20006
1613,-0.00227966,3.20164,3.20006
1614,-0.00227966,3.20164,3.20006
1615,-0.00227966,3.20164,3.20006
1616,-0.00402843,3.20169,3.20006
1617,-0.00234043,3.20169,3.20006
1618,-0.00059166,3.20164,3.20006
1619,-0.00227966,3.20164,3.20006
1620,-0.00227966,3.20164,3.20006
1621,-0.00227966,3.20164,3.20006
1622,-0.00227966,3.20164,3.20006
1623,-0.00227966,3.20164,3.20006
1624,-0.00227966,3.20164,3.20006
1625,-0.00227966,3.20164,3.20006
1626,-0.00227966,3.20164,3.20006
1627,-0.00227966,3.20164,3.20006
1628,-0.00227966,3.20164,3.20006
1629,-0.00227966,3.20164,3.20006
1630,-0.00227966,3.20164,3.20006
1631,-0.00227966,3.20164,3.20006
1632,-0.00227966,3.20164,3.20006
1633,-0.00227966,3.20164,3.20006
1634,-0.00402843,3.20169,3.20006
1635,-0.00059166,3.20164,3.20006
1636,-0.00227966,3.20164,3.20006
1637,-0.00227966,3.20164,3.20006
1638,-0.00227966,3.20164,3.20006
1639,-0.00227966,3.20164,3.20006
1640,-0.00227966,3.20164,3.20006
1641,-0.00227966,3.20164,3.20006
1642,-0.00227966,3.20164,3.20006
1643,-0.000540772,3.2016,3.20006
1644,-0.00395813,3.20164,3.20006
1645,-0.00227966,3.20164,3.20006
1646,-0.00227966,3.20164,3.20006
1647,-0.00227966,3.20164,3.20006
1648,-0.00227966,3.20164,3.20006
1649,-0.00227966,3.20164,3.20006
1650,-0.00227966,3.20164,3.20006
1651,-0.00227966,3.20164,3.20006
1652,-0.00227966,3.20164,3.20006
1653,-0.00227966,3.20164,3.20006
1654,-0.00227966,3.20164,3.20006
1655,-0.00227966,3.20164,3.20006
1656,-0.00227966,3.20164,3.20006
1657,-0.00227966,3.20164,3.20006
1658,-0.00227966,3.20164,3.20006
1659,-0.00227966,3.20164,3.20006
1660,-0.00227966,3.20164,3.20006
1661,-0.00227966,3.20164,3.20006
1662,-0.00227966,3.20164,3.20006
1663,-0.00227966,3.20164,3.20006
1664,-0.00227966,3.20164,3.20006
1665,-0.00227966,3.20164,3.20006
1666,-0.00227966,3.20164,3.20006
1667,-0.00227966,3.20164,3.20006
1668,-0.00227966,3.20164,3.20006
1669,-0.00227966,3.20164,3.20006
1670,-0.00227966,3.20164,3.20006
1671,-0.00227966,3.20164,3.20006
1672,-0.00227966,3.20164,3.20006
1673,-0.00227966,3.20164,3.20006
1674,-0.00227966,3.20164,3.20006
1675,-0.00227966,3.20164,3.20006
1676,-0.00227966,3.20164,3.20006
1677,-0.00227966,3.20164,3.20006
1678,-0.00227966,3.20164,3.20006
1679,-0.00227966,3.20164,3.20006
1680,-0.00227966,3.20164,3.20006
1681,-0.00227966,3.20164,3.20006
1682,-0.00227966,3.20164,3.20006
1683,-0.00227966,3.20164,3.20006
1684,-0.00227966,3.20164,3.20006
1685,-0.00227966,3.20164,3.20006
1686,-0.00402843,3.20169,3.20006
1687,-0.00059166,3.20164,3.20006
1688,-0.00227966,3.20164,3.20006
1689,-0.00227966,3.20164,3.20006
1690,-0.00227966,3.20164,3.20006
1691,-0.000540772,3.2016,3.20006
1692,-0.00221924,3.2016,3.20006
1693,-0.00395813,3.20164,3.20006
1694,-0.00227966,3.20164,3.20006
1695,-0.00227966,3.20164,3.20006
1696,-0.000540772,3.2016,3.20006
1697,-0.00395813,3.20164,3.20006
1698,-0.00227966,3.20164,3.20006
1699,-0.00227966,3.20164,3.20006
1700,-0.00227966,3.20164,3.20006
1701,-0.00227966,3.20164,3.20006
1702,-0.00227966,3.20164,3.20006
1703,-0.00227966,3.20164,3.20006
1704,-0.00227966,3.20164,3.20006
1705,-0.00227966,3.20164,3.20006
1706,-0.00227966,3.20164,3.20006
1707,-0.00227966,3.20164,3.20006
1708,-0.00227966,3.20164,3.20006
1709,-0.00227966,3.20164,3.20006
1710,-0.00227966,3.20164,3.20006
1711,-0.00227966,3.20164,3.20006
1712,-0.00227966,3.20164,3.20006
1713,-0.00227966,3.20164,3.20006
1714,-0.00227966,3.20164,3.20006
1715,-0.00227966,3.20164,3.20006
1716,-0.00227966,3.20164,3.20006
1717,-0.00227966,3.20164,3.20006
1718,-0.00227966,3.20164,3.20006
1719,-0.00227966,3.20164,3.20006
1720,-0.00227966,3.20164,3.20006
1721,-0.00227966,3.20164,3.20006
1722,-0.00402843,3.20169,3.20006
1723,-0.00234043,3.20169,3.20006
1724,-0.00234043,3.20169,3.20006
1725,-0.00234043,3.20169,3.20006
1726,-0.00059166,3.20164,3.20006
1727,-0.00402843,3.20169,3.20006
1728,-0.00234043,3.20169,3.20006
1729,-0.00059166,3.20164,3.20006
1730,-0.00227966,3.20164,3.20006
1731,-0.00227966,3.20164,3.20006
1732,-0.00227966,3.20164,3.20006
1733,-0.00227966,3.20164,3.20006
1734,-0.00227966,3.20164,3.20006
1735,-0.00227966,3.20164,3.20006
1736,-0.00227966,3.20164,3.20006
1737,-0.00227966,3.20164,3.20006
1738,-0.00227966,3.20164,3.20006
1739,-0.00227966,3.20164,3.20006
1740,-0.00227966,3.20164,3.20006
1741,-0.00402843,3.20169,3.20006
1742,-0.00234043,3.20169,3.20006
1743,-0.00234043,3.20169,3.20006
1744,-0.00059166,3.20164,3.20006
1745,-0.00227966,3.20164,3.20006
1746,-0.00227966,3.20164,3.20006
1747,-0.00227966,3.20164,3.20006
1748,-0.000540772,3.2016,3.20006
1749,-0.000470467,3.20156,3.20006
1750,-0.00390724,3.2016,3.20006
1751,-0.00395813,3.20164,3.20006
1752,-0.000540772,3.2016,3.20006
1753,-0.00395813,3.20164,3.20006
1754,-0.00227966,3.20164,3.20006
1755,-0.00227966,3.20164,3.20006
1756,-0.00227966,3.20164,3.20006
1757,-0.00402843,3.20169,3.20006
1758,-0.00059166,3.20164,3.20006
1759,-0.00402843,3.20169,3.20006
1760,-0.00234043,3.20169,3.20006
1761,-0.00234043,3.20169,3.20006
1762,-0.00234043,3.20169,3.20006
1763,-0.00234043,3.20169,3.20006
1764,-0.00059166,3.20164,3.20006
1765,-0.00402843,3.20169,3.20006
1766,-0.00059166,3.20164,3.20006
1767,-0.00227966,3.20164,3.20006
1768,-0.00227966,3.20164,3.20006
1769,-0.00227966,3.20164,3.20006
1770,-0.00227966,3.20164,3.20006
1771,-0.00227966,3.20164,3.20006
1772,-0.00227966,3.20164,3.20006
1773,-0.00227966,3.20164,3.20006
1774,-0.00227966,3.20164,3.20006
1775,-0.00227966,3.20164,3.20006
1776,-0.00227966,3.20164,3.20006
1777,-0.00402843,3.20169,3.20006
1778,-0.00059166,3.20164,3.20006
1779,-0.00227966,3.20164,3.20006
1780,-0.00227966,3.20164,3.20006
1781,-0.00227966,3.20164,3.20006
1782,-0.00227966,3.20164,3.20006
1783,-0.00227966,3.20164,3.20006
1784,-0.00227966,3.20164,3.20006
1785,-0.00227966,3.20164,3.20006
1786,-0.00227966,3.20164,3.20006
1787,-0.000540772,3.2016,3.20006
1788,-0.00395813,3.20164,3.20006
1789,-0.000540772,3.2016,3.20006
1790,-0.00395813,3.20164,3.20006
1791,-0.00227966,3.20164,3.20006
1792,-0.00227966,3.20164,3.20006
1793,-0.00227966,3.20164,3.20006
1794,-0.00227966,3.20164,3.20006
1795,-0.00227966,3.20164,3.20006
1796,-0.00227966,3.20164,3.20006
1797,-0.00227966,3.20164,3.20006
1798,-0.00227966,3.20164,3.20006
1799,-0.00227966,3.20164,3.20006
1800,-0.00227966,3.20164,3.20006
1801,-0.00227966,3.20164,3.20006
1802,-0.00227966,3.20164,3.20006
1803,-0.00227966,3.20164,3.20006
1804,-0.00227966,3.20164,3.20006
1805,-0.00227966,3.20164,3.20006
1806,-0.00402843,3.20169,3.20006
1807,-0.00234043,3.20169,3.20006
1808,-0.00234043,3.20169,3.20006
1809,-0.00234043,3.20169,3.20006
1810,-0.00234043,3.20169,3.20006
1811,-0.00059166,3.20164,3.20006
1812,-0.00227966,3.20164,3.20006
1813,-0.00227966,3.20164,3.20006
1814,-0.000540772,3.2016,3.20006
1815,-0.00221924,3.2016,3.20006
1816,-0.00221924,3.2016,3.20006
1817,-0.00221924,3.2016,3.20006
1818,-0.00221924,3.2016,3.20006
1819,-0.00221924,3.2016,3.20006
1820,-0.00221924,3.2016,3.20006
1821,-0.00221924,3.2016,3.20006
1822,-0.00221924,3.2016,3.20006
1823,-0.00395813,3.20164,3.20006
1824,-0.00227966,3.20164,3.20006
1825,-0.00402843,3.20169,3.20006
1826,-0.00234043,3.20169,3.20006
1827,-0.0040892,3.20173,3.20006
1828,-0.000652428,3.20169,3.20006
1829,-0.00234043,3.20169,3.20006
1830,-0.00059166,3.20164,3.20006
1831,-0.00227966,3.20164,3.20006
1832,-0.00227966,3.20164,3.20006
1833,-0.000540772,3.2016,3.20006
1834,-0.00221924,3.2016,3.20006
1835,-0.00221924,3.2016,3.20006
1836,-0.00221924,3.2016,3.20006
1837,-0.00221924,3.2016,3.20006
1838,-0.00221924,3.2016,3.20006
1839,-0.00221924,3.2016,3.20006
1840,-0.00221924,3.2016,3.20006
1841,-0.00395813,3.20164,3.20006
1842,-0.00227966,3.20164,3.20006
1843,-0.000540772,3.2016,3.20006
1844,-0.00395813,3.20164,3.20006
1845,-0.00227966,3.20164,3.20006
1846,-0.00227966,3.20164,3.20006
1847,-0.00227966,3.20164,3.20006
1848,-0.00227966,3.20164,3.20006
1849,-0.00227966,3.20164,3.20006
1850,-0.00227966,3.20164,3.20006
1851,-0.000540772,3.2016,3.20006
1852,-0.00221924,3.2016,3.20006
1853,-0.00221924,3.2016,3.20006
1854,-0.00221924,3.2016,3.20006
1855,-0.00221924,3.2016,3.20006
1856,-0.00221924,3.2016,3.20006
1857,-0.00221924,3.2016,3.20006
1858,-0.00221924,3.2016,3.20006
1859,-0.00395813,3.20164,3.20006
1860,-0.00227966,3.20164,3.20006
1861,-0.00402843,3.20169,3.20006
1862,-0.00059166,3.20164,3.20006
1863,-0.00402843,3.20169,3.20006
1864,-0.00234043,3.20169,3.20006
1865,-0.00234043,3.20169,3.20006
1866,-0.00059166,3.20164,3.20006
1867,-0.00227966,3.20164,3.20006
1868,-0.00227966,3.20164,3.20006
1869,-0.00227966,3.20164,3.20006
1870,-0.00227966,3.20164,3.20006
1871,-0.00227966,3.20164,3.20006
1872,-0.000540772,3.2016,3.20006
1873,-0.00221924,3.2016,3.20006
1874,-0.00395813,3.20164,3.20006
1875,-0.00227966,3.20164,3.20006
1876,-0.000540772,3.2016,3.20006
1877,-0.00395813,3.20164,3.20006
1878,-0.00227966,3.20164,3.20006
1879,-0.00227966,3.20164,3.20006
1880,-0.00227966,3.20164,3.20006
1881,-0.00227966,3.20164,3.20006
1882,-0.000540772,3.2016,3.20006
1883,-0.00395813,3.20164,3.20006
1884,-0.000540772,3.2016,3.20006
1885,-0.00221924,3.2016,3.20006
1886,-0.00221924,3.2016,3.20006
1887,-0.00395813,3.20164,3.20006
1888,-0.000540772,3.2016,3.20006
1889,-0.00395813,3.20164,3.20006
1890,-0.000540772,3.2016,3.20006
1891,-0.00221924,3.2016,3.20006
1892,-0.00395813,3.20164,3.20006
1893,-0.000540772,3.2016,3.20006
1894,-0.00395813,3.20164,3.20006
1895,-0.00227966,3.20164,3.20006
1896,-0.00227966,3.20164,3.20006
1897,-0.00227966,3.20164,3.20006
1898,-0.00227966,3.20164,3.20006
1899,-0.00227966,3.20164,3.20006
1900,-0.00227966,3.20164,3.20006
1901,-0.00227966,3.20164,3.20006
1902,-0.00227966,3.20164,3.20006
1903,-0.00227966,3.20164,3.20006
1904,-0.00227966,3.20164,3.20006
1905,-0.00227966,3.20164,3.20006
1906,-0.00227966,3.20164,3.20006
1907,-0.00227966,3.20164,3.20006
1908,-0.00227966,3.20164,3.20006
1909,-0.00227966,3.20164,3.20006
1910,-0.00227966,3.20164,3.20006
1911,-0.00227966,3.20164,3.20006
1912,-0.00227966,3.20164,3.20006
1913,-0.00227966,3.20164,3.20006
1914,-0.00227966,3.20164,3.20006
1915,-0.00227966,3.20164,3.20006
1916,-0.00227966,3.20164,3.20006
1917,-0.00227966,3.20164,3.20006
1918,-0.00227966,3.20164,3.20006
1919,-0.00227966,3.20164,3.20006
1920,-0.00227966,3.20164,3.20006
1921,-0.00227966,3.20164,3.20006
1922,-0.00227966,3.20164,3.20006
1923,-0.00227966,3.20164,3.20006
1924,-0.00227966,3.20164,3.20006
1925,-0.00227966,3.20164,3.20006
1926,-0.00227966,3.20164,3.20006
1927,-0.00227966,3.20164,3.20006
1928,-0.00227966,3.20164,3.20006
1929,-0.00227966,3.20164,3.20006
1930,-0.00227966,3.20164,3.20006
1931,-0.00227966,3.20164,3.20006
1932,-0.00227966,3.20164,3.20006
1933,-0.00227966,3.20164,3.20006
1934,-0.00402843,3.20169,3.20006
1935,-0.00059166,3.20164,3.20006
1936,-0.00227966,3.20164,3.20006
1937,-0.00227966,3.20164,3.20006
1938,-0.000540772,3.2016,3.20006
1939,-0.00395813,3.20164,3.20006
1940,-0.000540772,3.2016,3.20006
1941,-0.00221924,3.2016,3.20006
1942,-0.00221924,3.2016,3.20006
1943,-0.00221924,3.2016,3.20006
1944,-0.00395813,3.20164,3.20006
1945,-0.00227966,3.20164,3.20006
1946,-0.00227966,3.20164,3.20006
1947,-0.00402843,3.20169,3.20006
1948,-0.00234043,3.20169,3.20006
1949,-0.00059166,3.20164,3.20006
1950,-0.00402843,3.20169,3.20006
1951,-0.00059166,3.20164,3.20006
1952,-0.00227966,3.20164,3.20006
1953,-0.00227966,3.20164,3.20006
1954,-0.00227966,3.20164,3.20006
1955,-0.000540772,3.2016,3.20006
1956,-0.00221924,3.2016,3.20006
1957,-0.00221924,3.2016,3.20006
1958,-0.00221924,3.2016,3.20006
1959,-0.00221924,3.2016,3.20006
1960,-0.00395813,3.20164,3.20006
1961,-0.00227966,3.20164,3.20006
1962,-0.00227966,3.20164,3.20006
1963,-0.00227966,3.20164,3.20006
1964,-0.00402843,3.20169,3.20006
1965,-0.00059166,3.20164,3.20006
1966,-0.00227966,3.20164,3.20006
1967,-0.00227966,3.20164,3.20006
1968,-0.00227966,3.20164,3.20006
1969,-0.00227966,3.20164,3.20006
1970,-0.00227966,3.20164,3.20006
1971,-0.00227966,3.20164,3.20006
1972,-0.00227966,3.20164,3.20006
1973,-0.00227966,3.20164,3.20006
1974,-0.00227966,3.20164,3.20006
1975,-0.00227966,3.20164,3.20006
1976,-0.000540772,3.2016,3.20006
1977,-0.00221924,3.2016,3.20006
1978,-0.00221924,3.2016,3.20006
1979,-0.00221924,3.2016,3.20006
1980,-0.00395813,3.20164,3.20006
1981,-0.00227966,3.20164,3.20006
1982,-0.00227966,3.20164,3.20006
1983,-0.00227966,3.20164,3.20006
1984,-0.000540772,3.2016,3.20006
1985,-0.00221924,3.2016,3.20006
1986,-0.00221924,3.2016,3.20006
1987,-0.00395813,3.20164,3.20006
1988,-0.000540772,3.2016,3.20006
1989,-0.00395813,3.20164,3.20006
1990,-0.00227966,3.20164,3.20006
1991,-0.00227966,3.20164,3.20006
1992,-0.00227966,3.20164,3.20006
1993,-0.00227966,3.20164,3.20006
1994,-0.00227966,3.20164,3.20006
1995,-0.00227966,3.20164,3.20006
1996,-0.00227966,3.20164,3.20006
1997,-0.00227966,3.20164,3.20006
1998,-0.00227966,3.20164,3.20006
1999,-0.00227966,3.20164,3.20006
